Fp1,Fp2,F7,F3,Fz,F4,F8,FC5,FC1,FC2,FC6,T7,C3,Cz,C4,T8,CP5,CP1,CP2,CP6,P7
8.155802685172233,7.390579564374796,-11.30094373875124,-0.12145913669094544,-0.4407666333187876,15.316417465348833,-6.315844807079821,-3.6303078478234414,6.590812667882144,7.75373668814523,3.1207524234642534,0.7169795988269205,-6.331754833735584,-4.323856042397821,1.9219571249454028,14.331653020190553,1.738630620339638,2.2112395912176472,9.294679943787077,-0.3430893602702303,-4.571729884923759
6.0633010280675075,11.363158190715467,-7.550405615584776,-2.8448256140445314,2.3518795030885116,11.997071957364062,-0.9254547387445458,-6.802638181912899,3.800339255466991,5.543071501663427,0.27419037024501236,3.2652472472597074,3.3447544243397207,-1.8108143827566314,-2.496273034848338,6.954201372020286,5.201342866670551,-0.08611331949534051,5.304974843618988,2.989959021942132,-0.2425977283686862
4.007831451810986,13.015156889731522,-3.4194194619494933,-3.498611771425179,6.647662929080482,9.787702151449393,5.531765669560244,-7.663801375172679,0.28744881180825455,3.141808297332238,0.751033862508347,3.4839318041176437,9.758454832509258,-1.0735634003379602,-4.694746139723441,2.4868910097536867,7.644968770463901,-0.43935469646446457,1.9699932065199017,4.146824409807179,3.654274125287902
2.2974587067516676,11.638877147888294,0.9404288550797766,-1.5444080208254638,12.447527712794738,9.558805439157377,12.884277825361838,-5.493720147187099,-3.208617020620723,1.2593116679371281,4.578572454832791,1.7170615267291014,12.014952357539931,-2.1386753413411537,-4.109344371302697,1.9214346357910204,9.187729533196432,1.834562224698066,0.23854568493796657,2.6118743597310154,6.889252923755858
1.4651456342069196,8.536174713870679,4.86001373930222,1.6628257357085974,18.229559354228414,11.531401387635345,19.479681513108858,-1.2112476742685998,-4.775290314246717,1.3527020056121035,8.501170050653382,0.725694140075636,11.950086286830407,-3.2771830220933214,-2.040237001493317,3.8921745984780074,10.909004385227124,5.622842827633623,0.8048013423138338,-0.2042147169337114,9.540027409640917
1.9436900833338708,5.866553438335274,7.70753533415773,3.8978313373168287,22.342101339137145,14.899599480621092,23.27489631889241,3.7531260691679202,-3.226453115934996,4.37832251441621,9.340164195478962,2.679954385192288,12.10512085561816,-2.742483383722188,-0.32654453156308116,5.942851720306937,13.540613517518608,8.599880446829802,3.0957508812526093,-2.280037289765593,12.004378093335358
3.798930325112476,4.86461231416991,9.257669176340933,3.6795174088593714,24.450632834811074,18.06397929299111,23.463448911111087,8.583377141884675,0.3702527658189241,9.70570748440012,7.144038987977001,6.556057092752687,13.20979947290015,-0.41059843610716895,0.21005931160949232,6.320511754357158,16.56869289262121,8.784464851624264,5.0191501155912395,-2.5632246338529168,14.917418714742645
6.755703523366493,4.952417843716668,9.508084229939389,1.302535156375667,25.668094724720063,19.64637889636472,21.381229451682604,12.951368254297865,3.215951225080029,15.301097075613335,5.059800834056832,8.819649136863738,13.55537259638648,2.241950659472042,0.18655218179352884,4.869449191226586,18.91845092187286,6.0945613019194,4.245774014829022,-1.5305170854951133,18.931938154808467
10.371939404586131,4.526899270407193,8.418421088600233,-1.4743117269470514,27.428181990727452,19.49616024179792,19.870946004690868,16.130449703334676,3.08249964199441,19.122512947080494,6.2181208889712245,6.824261998054942,10.839434967952013,3.701367195695144,0.6699472272383422,2.604387723213618,20.44863067240589,2.6154936173672674,0.2616377523541935,-0.41804377453149044,24.283287109381167
14.072765921027052,2.736049601666999,6.2269691088367,-2.7563490028383453,30.315427742532897,18.784129696918303,21.284271334341458,16.90217410808583,0.20335313663186771,20.540510653524887,10.827943848488813,1.5436633161016147,4.836103827954495,3.8343219186743505,1.9353489817519658,0.7397927740133565,22.491457814245678,1.0191653297847951,-4.688501403117367,-0.02835294561256152,30.36733167528514
17.050127620591645,0.5680188666230843,3.9676324137542456,-1.7713771956065232,33.92854522945139,19.074203983330428,25.662967790366555,14.661922387769053,-2.949717618277601,20.540000783508773,16.11673163621335,-3.1419098011619075,-1.6708142472275853,3.680763917192481,3.18012020295796,0.1385690195516629,26.611367143753217,2.2049352814418466,-7.047117731570697,-0.22300753049064648,35.743592036206906
18.383112625257645,0.08641756510526677,3.226136695148544,0.781138591734106,37.67412515266248,21.098026040880836,30.589704373582087,10.570097162891795,-3.781142315399216,20.59891626608448,18.865048693063006,-3.938333887040485,-4.837443116995346,4.029802532279152,3.398413667464836,1.3344546894796725,32.70001118426248,4.262172878814777,-4.778504444411269,-0.39729192723776996,38.8725882971352
17.50703657527417,2.3782959974299427,4.882992229751248,3.4174264763643913,41.47968642721241,24.386926132016114,33.01684092138913,7.18699533818552,-1.5778670896129534,21.389261173437372,17.930866485529663,-0.9963153068895405,-3.0804642098428054,4.405305038909541,2.463403761092966,4.615888610868085,38.46512158041716,3.963147629874376,0.6913683206710346,-0.30333221607678507,39.25058597392871
14.834039818500123,6.180472662374458,7.913206816964537,4.877345638551335,45.66949970672152,27.9595682433755,31.76453825826067,6.317045909309477,2.2407935304436606,22.52347131158888,14.619866010965684,2.5182711241368945,1.18505601193994,3.5714527610554314,1.2410896093985078,9.722978155161165,41.14805421188673,-0.23534126461834415,5.427325141377809,-0.31913376891763034,37.97483687686007
11.739300788454738,8.750695573512065,9.631450795561639,4.751210942767079,50.29084608948352,31.256958417443233,28.701918081151426,7.135724686856639,5.512146679144724,23.384483960589243,11.207347379281499,3.5725410686661196,3.116879248814226,1.0229823778475273,0.6864184993185463,15.388401163819449,39.95799057039679,-6.404852967582729,6.179813550316855,-0.986988001946995,37.04822091725407
9.64982407581247,8.361385580463576,7.669669158750319,3.4374193814581098,54.79495884773011,34.45579680249479,27.52136084697237,6.631010471852397,6.947701368617671,23.978084464693254,9.367261968409316,1.8794819174774595,-0.6394631650864135,-2.167324123732877,0.9500197174002007,19.52447044247723,36.8861663627053,-10.394624635335928,3.076764554448137,-2.3597018682723654,37.86683125237023
8.906252026536084,6.022724626634151,2.071613886143636,1.746408847656765,58.49768541528151,37.98639369583602,30.927897099688206,2.261801600140202,6.6440227928898645,24.90898493636359,9.599868580972585,-0.4641036474847855,-9.0062735622764,-4.09411219027182,1.3857484940217923,20.364569283019595,34.96182226678019,-9.20501048809404,-0.6416341863633539,-3.7712042951299214,40.261919114438335
8.545314785231426,4.609422713165347,-4.548005271120078,0.4783884857478047,61.32016435744592,41.906264782015995,38.43217812945591,-5.4632814289670275,5.453553426611197,26.516012490119834,11.437980404827869,-1.5463220922132068,-16.928211619425333,-3.6599869065859343,1.4009934263359547,17.83077053903845,35.62789815822136,-3.7408295634605686,-1.6043989879434999,-4.288110808974273,43.037852820078214
7.397969604043246,6.006131615973553,-8.901245897342088,0.1707884563985257,63.94030934363898,45.817818554842276,46.5052034845091,-12.857537145008504,4.1600904387722615,28.25758092269526,13.731593531022694,-1.4986283049925984,-19.08789083031234,-1.529100159817327,1.125910771796022,13.86577841761478,37.570543399761796,1.6505290859071384,0.6607069444905638,-3.388109320598394,45.417716990085125
5.627217581983648,8.966773675197274,-9.353706181197966,0.9266619937946403,67.17064811837801,49.24043942209083,51.03905403497953,-15.740363848205797,3.166551364636863,29.128014741656926,15.009507664930117,-1.752532293570455,-14.044540647846603,0.4822855726272841,1.1991030850120181,11.240536012093228,38.09609935449688,2.539327711353967,3.4330702645205493,-1.3533941716201743,47.95618569055681
5.093396240877777,9.97462747245224,-6.602449369957814,2.326768015412562,71.15735954810123,51.826153163272025,50.170593890166955,-12.592161791829309,2.5907934017475185,28.70571827070706,14.321759947261421,-2.8201645892759077,-5.39762612087693,0.940213578168688,1.9219976990667471,11.607359752249023,35.76632972239295,-2.154637269646418,3.477616656241545,0.8760504731041512,51.73959194231169
7.899862194836893,6.51350858908754,-2.4395920268441076,3.583361037313147,75.20745093193509,53.24668943634504,45.35209858112736,-5.586694383225043,2.3327652309165288,27.693846388919866,12.143966560285719,-3.2428933349449913,0.8712124445733613,-0.22896925677186797,2.7294485801312685,14.357682261647682,31.750913823288315,-9.557523743785401,0.16305110075574092,2.2949604559991252,56.6548639159817
14.169419264138131,-0.436791208271992,1.8092412912629887,3.950417154150369,78.41974587252305,53.11509584864357,40.00838153429373,1.1799413601879536,2.0063892951530264,27.314258462464856,10.371893931806593,-1.1705092193853437,0.823098774565977,-2.0442894544424743,2.6328826108942676,17.204703978874363,28.925198227067295,-15.410257310621601,-3.8889349313040293,2.4682211163758834,60.66814834803225
21.19844272761133,-7.065842528423736,5.514318320978614,3.17376966403614,80.53589032106677,51.34743853395787,37.03718801456526,4.668255647742228,1.0980516919197973,28.22291358101096,10.917127277056665,3.150396682650798,-4.686268465992837,-3.467791987722455,1.1623322072143059,18.06062451391298,29.619494521398202,-17.24201138705737,-5.217670083798124,1.7904110327386455,61.27375735206247
25.117370374431612,-10.019977769349389,7.993890484444451,1.5998166836775054,82.21515508007846,48.753992646151005,37.08961661089643,4.481877026172079,-0.48551509218897193,30.04699177889907,13.920885898463535,6.792705831440656,-10.826174430826143,-4.101894940358566,-1.0737589206422657,16.569379073364303,33.987886158327186,-15.506641660554354,-2.649227838997246,1.1626644536656565,58.002681548270296
23.806789053718088,-9.050365457218206,8.250101427267758,-0.18950786452288826,84.54949316658708,47.0695641723232,38.76487809335986,2.307529785780437,-2.0547429553859637,31.991584049080863,17.441486023839975,6.41303284367271,-12.578897751376521,-4.085203666745233,-2.850464863889674,14.195435735884748,40.22733737401841,-12.25794470957057,1.7663475320343007,1.3088111535527056,53.51507021810899
18.5257384233095,-6.552191669113807,5.947452568878448,-1.8194304865071356,88.26311045440733,47.955598396566444,40.236784326516734,0.2643582659114847,-2.5675318352455516,33.73422700447342,19.16394460532112,1.395482103708712,-8.412082854947046,-3.6529508119122367,-3.281538770491589,12.90338153552702,46.002841204909906,-9.068497788706942,4.766525475389228,2.196427029122792,51.920428353703215
12.916130161351568,-4.722949941644362,2.5441245552153946,-3.2013193120074606,93.23090309006446,51.53872131204902,40.74121052075198,-0.3605121641978446,-1.65609283092803,35.51218388845443,18.53057059735609,-5.293544002083177,-1.1987664198960428,-2.977950405087168,-2.3308101206277394,13.55908393204536,49.76208979511841,-6.249419197580931,4.752494905828933,3.070684245646029,55.40051539020487
10.12080182927814,-3.546993308784116,0.7848735677798993,-4.204338265581919,98.53224181396311,55.94363653617714,40.763104560795156,0.7522174942331643,-0.3465795646229912,37.38048466696589,17.109585795827567,-9.450577050838252,4.284330733650049,-2.2938741644223155,-0.5601422087606558,15.447261045543199,51.10651832918964,-3.621965824223308,2.883142314252722,3.070640526446457,62.169668084868235
10.67021155709255,-1.6931597494902433,2.5001819670201337,-4.383658996419264,102.9847318652029,58.52351324836643,41.132328239685556,3.360137044740705,-0.4704814345000039,38.65314814009734,16.823039679216745,-9.08880706258769,5.142030248327961,-1.9326848141758823,1.4876214868072615,17.04016580015919,50.33396909397564,-1.4963184548845412,1.5955643171829037,1.9555646862650258,67.81146754193648
12.905643223892215,0.8683118122184152,6.6151186350400515,-3.224576714868803,105.80013287147366,58.01017499891472,42.032685040392984,6.834620839343302,-3.0129549185868347,38.43079171899469,17.948597113336138,-5.861264979838207,2.5054634805308966,-2.0278303292874442,3.5121922440451243,17.289513527694673,47.94575641717815,-0.541258897128932,2.2314446514397988,0.3252458537730121,68.8474891596999
15.047626792802019,1.8169981657237138,9.704903206561465,-0.7985592731546824,107.03314918422247,55.57170041304285,42.90465066821731,10.063183998422351,-6.856722757449994,36.84133424824072,19.04707099552045,-3.2237354104337212,0.2675688456589498,-2.191053523947444,5.174163134075209,16.406390196555314,44.562175628912854,-0.8478669659036,4.102841275359628,-0.7902989396361484,65.509586403802
16.74770013258113,-1.3933598885647283,8.968770429533002,1.9233652448729885,107.5842407677147,53.87448152406689,43.17989818706792,11.601196728533516,-9.283014173714673,35.543054929809394,18.852240212208557,-3.318987262889553,1.4679409911400372,-1.7058347095597899,5.853831960006883,15.528368870293205,40.995832664466334,-1.4668075272289862,5.536985749177223,-0.6310451841350486,61.24716084667167
18.671744810970964,-8.312014713881045,4.9551610483042925,3.5585628160752103,108.66908253713852,54.803690816838575,42.965801416160915,10.455891219108274,-8.064726504195566,36.59024180060084,17.88666159740111,-5.512460553668479,5.447020366868601,-0.19817934887515198,4.943636983556173,15.713895039213067,38.26955819935005,-1.1202456041019753,5.500497529721688,0.8059734673000484,59.532832805454944
20.884203632661645,-14.809902853416895,1.208393343362907,3.3206677215341998,111.00953668096926,57.948564393054525,42.99055580337389,7.080641464426799,-3.4344062975001766,40.497084478780096,17.855129583239144,-7.624095073926043,8.320654603550578,1.8555545041971622,2.5098789627075577,17.083868880837883,37.37864623680139,0.5693300808111896,4.178548842494365,2.8312485425792255,60.94267511593753
22.091487781787063,-16.271496140722867,0.8892886690715527,1.674481957775925,114.3074565631726,61.184952177878586,43.79138451197962,3.463685775436934,1.860892496985206,45.34373524463827,19.540739854844727,-8.230744015921625,6.382957955125158,3.426578589292399,-0.44558387701122903,18.691258773406478,38.92832794139369,2.759356371627515,2.2056781805602492,4.4681102102050225,63.13290688956814
20.823608397729284,-11.879269767485644,3.571803283120126,-0.033003620116049626,117.42089510836854,62.71714560951095,45.056760522969,1.9452175492456227,4.588378816162713,48.034688943371556,21.686794054410583,-7.688302625776057,-0.4393743515649393,3.8110422052895423,-2.558593622366542,19.240183163909453,42.81330731324472,4.416615350571915,-0.2128747963672648,4.886759251215185,63.48863557237027
17.350530809800457,-5.591342735975126,5.3256720580054635,-0.6918421506729948,119.25159128500428,62.64567437646022,45.77001648559917,3.3492697786113297,3.4691441982254414,46.78241436869676,22.244745857767274,-7.098363276785875,-8.189483875787342,3.2628987301717225,-3.082508250698212,18.109798081206918,48.09238097434819,5.455185187910779,-3.067069972068566,3.6952570489799816,61.81753611912691
14.20029560970012,-2.6821358655989247,2.182417855434206,-0.235355797659907,119.67511002505732,62.56017261104172,45.08422676440677,6.010159669942011,0.0060241321660954306,42.6693296634083,20.697056424794503,-6.723126034848725,-12.014322852167442,2.7515032627427076,-2.4103508309174604,15.84911332074177,53.203001199292345,6.585506769758412,-5.6685223588293345,1.1194314870788917,60.50689233427086
14.242433846613036,-4.914470830326402,-6.092160849161365,0.5575323921394401,119.69370673683488,63.688092564027926,43.165688856143746,6.795386195200478,-2.9156569676486574,38.85576005604768,18.8271510595767,-5.747170381854882,-10.110146391659889,3.066704276466024,-1.5974171960836339,13.775734919882206,56.56881825414776,7.948085564404559,-6.4751354979336035,-1.969484718981994,62.052120624080224
17.93380260757582,-9.064407143363317,-15.329715806066147,0.9573547002170233,120.63681583302542,65.56336443024253,41.17993053024725,3.5659996763781385,-3.339872740904419,38.13862190268288,18.821010436088457,-3.535568899070263,-4.933212827838389,4.16505595635586,-1.3668956626078348,12.920491903692177,57.45002102865245,8.236610672811592,-4.246659587755189,-4.427787484449984,66.373810301226
22.50935265999179,-10.176534596612926,-20.07563346893163,0.9294730824837822,123.05265426464672,66.59414220780432,40.48035426758068,-2.831446829256694,-1.4874754972981123,40.93135153009535,20.716787616650745,-0.7817197489084824,-0.752324735466682,5.247368203907943,-1.5304233281067832,13.08897702765156,56.404555969316135,5.570416949187024,0.44571877405192906,-5.547785912235804,70.49067310999244
24.145602773874277,-6.289697165530738,-17.74775257317735,0.9518270329856625,126.22877920754141,65.85053723821623,41.648067589882224,-8.927153061740697,0.9063549096511412,45.283614068515185,22.029330334317002,0.9094701700229018,0.01424649038509429,5.442859576412854,-1.3117791032850712,12.991340376729633,54.89333191200237,-0.45944634935392814,5.034449374113617,-5.565228265217456,70.92611498309279
21.355708949115744,0.025348817014319902,-10.362664351989029,1.2501707986873887,128.76896328092022,64.15105706305397,44.14677961484595,-11.274430387910883,2.2785120051276087,48.651807740057144,20.108991623558463,0.6948904619747318,-1.7283744545600355,4.404405472736872,-0.20688946498201322,11.473223913597337,54.25712147688982,-7.591633581287537,6.719641197964975,-5.408161258758295,66.71725247081957
16.461058453059977,4.595771364146596,-2.7258880402217494,1.3548313657465876,129.7541195385479,63.25545763963842,46.84087753452924,-9.25989171162111,2.317506443158024,49.78553042194303,14.892287433975092,-0.42686072693728416,-3.5129351586154782,2.3817991037213093,1.4760708520658823,8.82106322749751,54.760442132836644,-12.10782324019723,4.771601628619477,-5.71549885978552,60.36076723257372
13.702264504068753,5.875333501725719,1.2114397439999642,0.5171252403582438,129.52694465384516,63.924922571567095,48.7746921996893,-5.562823753102755,1.643053919921402,49.247062943454274,9.208005526817162,-0.35350377279423073,-4.179832654718202,-0.05510638440065785,2.920949510653677,6.96358742486996,55.537662464985544,-11.777904202578505,1.2438995891390245,-5.964746761159177,55.785821642857876
15.494392907907638,6.072754455522351,0.7627458930843627,-1.4840467349778104,129.42392810461854,64.98819678947454,49.61220658715972,-3.614006423528568,0.7835119985057344,48.47391654061002,6.35127243952738,2.1406785886721718,-4.785192774095632,-2.2665595716176785,3.577935164715861,8.028309205390553,55.50146972108462,-7.900848822817045,-0.732177568382232,-4.777355507863588,55.23823770743592
20.181833898825754,8.179138938589825,-1.7946798796806456,-3.9170808664604237,130.67170719984952,64.55648621513052,49.513495743953854,-4.2143511896458845,-0.35143949933224494,48.43900797183695,7.342716175119059,6.186950322508405,-6.738917293745099,-3.661367150655068,3.6097422709882654,12.328028581758613,54.35024343993035,-4.406658601560876,0.3821081642852402,-1.385624917099573,57.734476560684236
23.414901015488187,12.221281375301,-3.4438144865119527,-5.492141396005977,133.39336501758686,62.19806618710156,48.68468779508735,-4.639746377238443,-1.9719894195806489,49.054008680832226,10.441694606129843,9.542824550822973,-9.524811623041526,-3.8705504980384715,3.5768041031240188,17.64406584657631,52.772220908227666,-4.623594861760987,3.289981695018821,3.0971599654496718,60.244457648880015
21.943134839804156,14.779527468601259,-2.675044099276774,-5.260486803345229,136.49536563744846,59.76840539030368,47.170908224180465,-1.4520344981900264,-3.631443790304709,49.62396846703046,13.029142849856784,10.556584934550234,-10.63058409358168,-3.0089781490470244,3.6902619638167247,20.63877997027265,51.65119997224559,-8.476872820139432,5.130682583950504,6.031683510347612,60.402951291540084
16.386765436579395,12.418862908269926,-0.06837844979383334,-3.2594532014829953,138.49661914184188,59.73671229066774,44.9047555996013,5.608270204948681,-4.2002454553669395,49.725747941250404,13.702735323564223,9.442931501755186,-7.946482176613689,-1.7154761819072732,3.419622924462211,19.404246795154762,51.15638014983393,-12.48342355142387,4.099320578383646,5.246334779685073,58.27375829573389
10.459759531431775,5.539237715034928,2.7646460689425627,-0.43631206191905436,138.70314884303843,62.507001759850674,41.92374700605917,12.431111712198748,-2.8266503021313696,49.65446946976119,12.685986511228839,7.737055226746603,-2.280913191211879,-0.7673493728298824,1.9593925443647384,15.050485288160534,50.598063847242955,-12.614107417344034,1.0094501743935331,1.0055225806406072,55.69952158386497
7.49580679818178,-1.3360307839972538,4.681683358093351,2.0299779636772044,137.7635563287941,65.53892634227628,38.523041992496815,13.704792465948051,0.05533541073437531,50.090299936152576,10.762560335898831,6.728428993823658,2.888910623946554,-0.48627831391716425,-0.7740435812146669,10.782813260845085,49.1463425904375,-7.543799588829776,-1.5018657967759637,-3.9010646907328437,54.14271225658497
7.522529283688886,-3.287040596840872,5.86532146588633,3.4061388270246034,137.21012313338414,65.49409621281218,35.197947201110146,7.869856464623415,2.791976727737223,51.31036119020143,8.266223176720445,6.4934346933660985,4.30861180613455,-0.5198454011749949,-3.5759744880205155,9.266297601978598,46.64885393440083,0.4409302780023687,-1.3118084365651446,-6.1780871956487555,53.2085716994108
7.627047256500653,0.7728838886193063,7.454692133965489,3.62368607210429,138.29997659369718,61.56755617327085,32.45434290050457,-0.8638026284561233,3.7154748879874466,52.707931833124135,5.19859101975567,6.335514932080078,1.7780314762036094,-0.38393968065437667,-4.510839821408043,10.540416107549039,43.7569471970302,7.40397013644035,1.4395046413508714,-4.452530757863786,51.28492548405838
5.235765725661333,7.16108585747735,10.302510113436643,3.0105830441882837,141.0265168771316,56.621361751879974,30.505647882463876,-5.80669673753106,2.42831922429725,53.11252256611817,1.843477641951591,5.795945631944526,-1.7943840087962872,-0.17597364116960768,-2.3737278128478443,12.268977179845926,41.27483206939375,10.68629266915308,4.616487534875096,-0.06570702583089916,47.585848171510065
1.0182705919873074,10.582853690131351,13.9127450095911,1.8638641503067905,144.04828750133527,54.69202889984118,28.997279437975518,-3.6495796442169874,0.030404070208777778,51.76836265015686,-1.1537524393724468,5.066780037137577,-3.061752225798823,-0.6248628241433087,2.1254153270313663,11.963557318018424,39.45954997560924,10.28356846752984,6.006653979201692,4.281120942218966,43.37183362929674
-1.5555488859322475,8.377886565818205,16.454111089011747,0.2231821655192534,145.60767850097426,56.997620236984254,27.00372884879203,2.5986794394271433,-1.9337034229348524,49.13654592979399,-3.370186171039407,4.435412947030377,-1.1139047308953358,-2.2451736415718537,6.533995891964071,9.105008375136117,37.94369109579869,7.993892950803978,5.042781590995265,6.5743098895189735,41.03513296738823
0.2764847224451312,2.209767775650738,15.943897391594923,-1.8919341568031478,144.79168302337848,60.34753318670855,23.386517043757067,6.4650039072219485,-2.7791098834517034,46.7415320837628,-4.85173258043468,3.6354467773838324,2.046191661591352,-4.420304618725194,8.294728511424523,5.355479364067141,36.2030163485615,5.5119436580997485,2.981841086592171,6.484478692115825,41.85836149001213
5.4296000528098425,-3.7734987106929436,11.770982475305964,-4.056999372747433,142.18734624350805,59.77796551056004,17.591181352724533,4.118854114699026,-3.0993262296117114,46.02823410142642,-5.576028763179386,1.97324788491663,3.654808260872281,-5.5824931873918295,6.611855258188074,2.8976774303306865,33.96437905828874,3.3430528354801963,1.638767867404976,4.8927287324488375,44.61156111287337
9.472689550391097,-6.24750986200533,5.47367653207876,-5.363379571742158,139.44115886991418,53.22728942542524,10.298255802425293,-2.005283032364345,-4.0469334349712,47.062658141442014,-4.927610013124891,-0.8258531446557673,2.632291203235306,-4.511053425185148,3.0369870744169707,2.6686959819709966,31.223548515199493,1.2787711911306778,1.9130877413236866,2.8681823189912388,46.42779656533769
8.566252980270379,-4.7590064450488345,-0.057268954415715,-4.90293411592284,138.08112674277737,43.874531650333594,3.3410899101200116,-5.534102307805391,-6.1919108183511264,48.3303215974013,-2.190396829876368,-4.078185117036743,0.09652190585373255,-1.618665760017069,0.2415747775973497,3.9442252917792917,27.9492163017943,-0.5460899370447616,3.328564496986922,1.1981067615854344,45.15673917942652
3.1787772776324306,-1.3389054958539908,-2.602246319258829,-2.585033857618072,138.54591342293492,37.71968795750575,-1.3166646373505735,-2.2423737575037457,-8.997386202684623,47.94959514428742,2.1202461791841034,-6.586093739021511,-2.0254169462129035,1.2163653271716584,-0.05451750270368605,5.360342589114888,24.0686041896539,-1.3439340657050214,4.686183390489682,0.4921205144869397,40.995636349455786
-2.030166190486352,1.345575125121403,-2.3617877936577303,0.39641921697408034,140.12406754121707,38.44498744770111,-2.9732204672635696,5.8242693685007305,-11.168301823959052,45.35450574394058,5.709167439062757,-7.656356277138026,-2.7157150280331583,2.2437584903103924,1.7382491243953675,6.040993641748857,19.7751304438111,-0.530455636853647,5.030128820089332,1.13813043578911,35.92977398484002
-2.358138391910528,1.6031792875109063,-1.854682728070748,2.1120383729581205,141.6789519951417,44.20809629914226,-2.8601100253418412,12.086005204790267,-11.469929122075373,41.90277774955699,5.970327368965394,-7.656450378901967,-2.271823823389351,1.3827046860239995,3.7320272025245775,5.7302730594562545,15.794652133010915,1.187389543651105,4.136621376347493,2.8233414654297135,31.68041658660652
2.469603999076233,-0.7393592621284437,-3.8731539157219443,1.278862526941805,142.40057557244452,49.27015199266628,-3.411243700922867,11.210540876396681,-9.412446144088587,39.73742392164457,2.4328522776946206,-7.531322525098588,-1.3819156781898698,0.21897629489476822,4.326209820363905,4.218348379108868,13.089533354153726,1.890514772392452,2.3689269562459936,4.352664101427078,28.29018787949393
7.739084425788807,-4.6223516986946525,-9.01842531347004,-1.6112548773843587,141.97928117457002,48.855614429758184,-6.5156453595816535,3.512970122563698,-5.4334620982944255,39.88296095839123,-2.3866679422328616,-7.858460561219482,-0.1875656671536996,0.34743409700927197,3.4870064873985225,1.087298065031284,12.113700230558276,-0.26427483478693725,0.304070092358367,4.426771844024458,24.638266484030154
7.735046914603059,-8.404366167070087,-14.878191785191381,-4.504927347626243,140.35253142044434,42.92735713921781,-12.063306323333554,-5.749800449633706,-0.7280230496809118,41.30792636742237,-4.983880398586845,-8.36727753069208,1.7268560640121733,1.690689480015516,2.4272450731868838,-3.614791070965112,12.26250784955964,-5.390384504389074,-1.4297306172858661,2.913989650131793,20.160942977201554
0.809194443547343,-10.693795259284919,-17.605901762815208,-5.286911150494573,137.5620598973913,35.64465873889951,-18.104382424299146,-11.0713506932667,3.212251604935349,41.89899697388933,-4.082678270467959,-8.363005371952951,4.549232169553171,2.519950645825374,2.09776935665864,-8.564842788424802,12.181815524006419,-11.371554270787078,-2.238759317408946,1.242488015996291,15.812184431637153
-8.996707040271998,-11.116281179249548,-14.827582525351865,-3.4824148955476697,134.0237825080362,31.436340170405295,-22.478805582814797,-10.890450418451142,5.18959899590411,40.406643749143356,-1.8511917176688653,-7.4435795635889885,7.7314300725126754,1.221182191075243,2.1454187659137514,-11.514641035471074,10.720402984690844,-14.959952353017474,-1.7762444720605668,1.1522327133160142,13.076614093915136
-15.232004952750342,-10.454923408846593,-7.57456122659932,-0.5708695938713293,130.84597942158535,31.56166493189451,-24.546016534719904,-7.767828219720007,4.864202969141956,37.593781516723986,-1.6438978422295385,-5.762468053679235,10.293139061060774,-1.8925774347349942,1.3533314634110862,-10.938751381441158,7.7257792604678155,-13.800595822559465,-0.25579478762933006,2.840760570696342,12.10212665710877
-14.292656529491282,-9.89065866556976,0.23083164492875752,1.3467580670327242,129.52657318935962,33.89670960621368,-25.530327087187356,-5.201676571768518,2.914453304992234,35.50212253669853,-4.468194610265727,-3.738533155798928,11.526445204175184,-4.5469466112956844,-0.8812212966584365,-7.561768793402946,4.034239907201618,-7.95920519538498,1.483707831733828,4.498874857714439,10.993210396542288
-8.131375343335103,-9.801128140941374,4.441578184609089,1.2982299556083263,130.91210514501688,35.541248665671574,-27.215130836996366,-4.513044189946187,0.5880886007761297,35.62411151004877,-7.843913289382212,-1.727026193153527,11.310501720674875,-4.389080905051136,-3.610382209858054,-4.180087636817975,0.6029675668561474,0.05845086976929359,2.4397488132179763,3.9723267845135917,7.2382765415767345
-2.4163791965616994,-9.293190445503546,3.3625732714372543,0.01701111116089571,134.2213633706283,35.243556379485,-30.187134826388473,-4.5020816899653,-1.1123584899407577,37.681548870960235,-8.370510808404989,-0.03142030359580428,9.836846194163119,-1.0446572660234525,-4.926398022745054,-3.6104489416141248,-2.355948492354374,6.866650500845754,2.1727435091365477,0.9675071929886052,0.10274938325598271
-1.9719386517659174,-7.155952751540763,-1.4914767672487361,-1.0526526791142776,137.1783345269772,33.61650276890107,-33.261860978679444,-3.439480594528159,-1.933029118244105,40.072762647146746,-5.5410176196035525,0.9066899214496527,7.288564565227238,3.498209724095794,-3.6189145144700183,-6.433189840129938,-5.417623209180157,10.300718439131842,1.1171783915951214,-2.475046474691281,-8.2692168854457
-7.362532081645578,-3.511469989929116,-6.672527761212159,-1.2742724002572647,137.4016998787404,31.558647888710283,-34.583892144504304,-0.871360167075037,-2.1631837772153615,41.34343155363054,-2.6941678746231776,0.5988163527800197,3.9614360958669406,6.491956018023323,-0.37734394435369456,-10.53392621612687,-9.175230436269231,10.462559933282384,0.23471038399279953,-3.9445482166709347,-14.294168368091409
-14.990879793820412,-0.3567954075985549,-9.045826402531283,-1.221676596869342,134.06970980694012,29.063231083194005,-33.43695520870057,2.361528850990486,-2.0506321045943565,41.15164342151274,-3.961397709336029,-1.0080746725190606,0.7353013100190497,6.548479862886666,2.601909254728608,-12.980496999958271,-13.403018664758072,9.098558464202434,0.2752382181102241,-3.0886475977150747,-15.638179724216869
-20.030789036392637,-0.1672289899240771,-7.257905693600347,-1.6519672247047754,128.4895146664802,25.65816923638488,-31.076793272303256,5.177670738988655,-1.5339747385759654,40.003209755785086,-10.11965768684846,-3.202427213787849,-0.9008020299095323,4.450043813545339,3.29945545687617,-12.60996432508928,-17.005188112467895,7.844080968909504,1.3001969553111432,-1.937358026777997,-13.014179817580896
-19.6865788204759,-3.5375508211912408,-1.8834625930814841,-2.260862968513769,123.08203116851433,21.58980950041859,-29.834503009489985,7.0761923911769635,-0.5534962486922295,38.25679010668223,-17.500797832053227,-4.803415180803963,0.3544839698335891,2.0900105075177815,1.4616144057813658,-10.978131855021111,-18.7909930878482,6.884248369959507,2.826105567383529,-2.667567740146409,-9.581768847821944
-14.584986406492721,-8.094515201445839,5.231159339029623,-1.7198755330244329,119.60129969178887,18.069924207991956,-31.299898796958917,7.97800787105397,0.475294038669249,35.65791064157199,-21.13732482597569,-5.006290261060505,4.3575881391194935,0.7118019953144419,-1.2542018813211644,-10.793703546894996,-18.48021907355565,5.274008090796718,4.303392758411149,-5.109845684068725,-8.643642226895093
-7.959360268276439,-10.074763201013052,11.729102871234018,0.85548717113815,118.07957869649854,16.103347444468454,-35.208105589184306,7.700650919868339,0.7927941827561511,31.95503939121918,-19.105634080828935,-4.0387354134784985,9.148067057362468,0.07432909925034725,-2.635496039731197,-13.284007632774745,-17.026570748627023,2.652965195542029,5.368055659048585,-6.695586571673427,-11.533563350821463
-3.5692148688482455,-7.48812773729516,15.446883029356734,4.467216340486271,117.29352985979622,15.30937674349749,-39.888785680655026,6.092870189500443,0.10416972572266425,27.769069937237475,-14.03612571639592,-2.983413555140242,12.119263878150708,-0.8924627020792796,-1.5989424438413968,-16.926761129517725,-16.00024348718692,0.5971627950734919,5.70998561319832,-5.0571503668292985,-17.270863667635496
-3.7419463802525783,-2.0542086140646263,15.123732613861918,6.47729527820409,116.12001733838896,14.20588044467417,-43.67041974131233,3.5632364172155704,-0.8014785189446679,24.57871621590786,-10.569589508081549,-2.833729867314328,12.005140944540303,-2.7084005726546585,1.1079151979684958,-18.69151955965664,-16.555571036343892,1.7922930678290783,5.003069202834166,-0.6505004324571828,-23.78867783180176
-8.300302838980093,2.0452441382142323,11.132241429870358,4.632786685559741,114.45447208840446,11.890526412962924,-45.87543232033632,1.1127732209780588,-0.5210967135163467,23.625567909425435,-11.329754615160278,-3.606475943839291,10.01990947820391,-4.642462901176165,3.6071309059701036,-16.748989544369678,-18.724783603051733,7.340658383748276,3.230116170757631,3.4085748798847897,-29.416922217392365
-14.760378454501229,1.6014848769765733,5.704533594650161,-0.8507192308284521,112.9496106065452,9.281591517366369,-46.76849261389546,-0.43797581483660064,1.5865605083054661,24.767371090619072,-15.181770354652905,-4.361006776175856,8.804194355849717,-5.276655148555307,4.288867388278572,-12.242649220837311,-21.559327263135827,14.622633182617667,1.1464823392443437,4.290036859312525,-33.54640182669634
-19.811237598498607,-2.883743689214981,2.0295104276723768,-7.064265579843569,111.98248713270851,8.417854699887155,-46.7581311947573,-1.2958472943774737,4.420822474884731,26.41706219426924,-18.9345619797794,-4.015002910132872,9.980798772090534,-3.8324556597419352,2.864274449172978,-8.535706642105396,-23.91022097350455,18.25676578603627,0.13824316274926773,2.170888637610478,-36.30039956860404
-21.29350005060285,-7.571269492734634,2.452431853973223,-10.437555214882888,111.00614239484065,10.380850137005915,-45.93880405481626,-2.498412047241215,5.7335628752391905,26.72549741869959,-20.26568990323969,-2.2275512881926143,12.443314353849193,-1.026034737174418,0.3808749247397085,-8.55823737183913,-25.088774066933055,14.180539265335305,1.2307067993158176,-0.05239869025022337,-37.9371535559297
-19.444608547827023,-8.457268933142021,6.940108187508184,-9.39394863877432,108.96278049304263,13.856664933773262,-44.363064375034654,-4.64237774191071,4.021425373997619,25.003895086925844,-19.160524102594216,0.3979452879396316,13.154649275922644,1.3555200868319848,-1.6580525819555714,-12.447680907460626,-25.026791472208597,3.4722834727512346,4.026067359233981,0.21562481748135198,-38.72661903784305
-16.39702829951156,-4.565074828236905,13.086614659449415,-5.397477988415909,105.32937644687951,15.89054189092476,-42.52875917746657,-7.050615739128791,0.022391801812940537,22.086901055087857,-16.992992255282175,2.86876969961624,9.953712709578685,1.8196487283204805,-2.304640850135256,-17.50874105580145,-24.026536694704504,-7.731022332934412,6.688892607376068,2.6310561570702884,-39.093255834192604
-14.339094577790817,1.4861229448889381,17.618579481949542,-1.5854580297480387,100.7574725691989,14.224646621139977,-41.26129272350005,-8.218384060302013,-3.725669564554163,19.38192173765291,-14.965230567991053,4.599580679441516,3.929040253048319,0.3996521235677839,-1.5717466363480153,-20.399926548414236,-22.482674350894897,-12.693563547758561,7.318104009023152,4.333904871935731,-39.57937907755529
-13.857960867806208,5.830070766190224,18.301642293803887,-0.1949610720654822,96.67955402973736,9.1334423302712,-41.01027298387527,-7.2501468009054495,-4.938599966101201,17.581267870284528,-13.569048604161507,5.738484568567973,-1.14991026325206,-1.3517313562958642,-0.14554062519084776,-19.747010270960075,-20.927649447852943,-9.296108097814855,5.602463369181814,2.958487809712173,-40.55937127785178
-13.927340873427523,6.348584841514526,15.006887554030667,-0.9170024509289858,94.15365885375734,3.0265218140431696,-41.3401288135097,-4.809116733293281,-3.4356541535275995,16.167540217990837,-13.067675845146251,6.827583440828482,-2.122852848320791,-1.6428886474281703,1.2404479386210334,-16.96680615519727,-20.166957713994318,-1.5598564655406273,3.139421604807934,-0.8660095418265615,-41.874922794908926
-13.405992685918639,3.918378347808124,9.33491829183997,-1.4870053368527767,93.07066745356911,-1.6617673660083732,-41.37912326641379,-2.4448348328147507,-1.035912320271093,14.111771256595999,-13.902748872104423,8.05062401132187,0.5522019962501366,0.09123125158947776,2.266643467771182,-14.785400533620102,-21.073445089043236,3.8437461476575727,1.959418848175482,-4.027983355156654,-42.96842091690566
-12.507557572101783,1.2257251572079082,3.399841684832623,0.10605086282102638,92.36834070625841,-4.238023900398007,-40.81495892397853,-1.183606966716898,0.26341882631281743,10.995614583966626,-16.169668711011344,8.793505116836071,3.03186049298196,2.682990114726707,3.038357732045113,-14.834050312703749,-23.952733496215046,2.855529109026409,2.54802307869312,-3.9469675464965266,-43.53830688188839
-12.713302114023996,0.49867436972992674,-1.1510433429877134,3.6121379230334423,90.97959887148342,-5.769183273851189,-40.39999910197124,-0.8660549053500586,-0.010119366947686226,7.490602505661473,-18.887797647223962,8.010821426912315,1.6528613348950325,4.18476112021749,3.7358651716823297,-16.564696782344214,-27.962728156118928,-3.4736362552751485,3.355860657045006,-0.9984861420410086,-44.038676531647546
-15.082457724364259,2.179613155538567,-3.4000288234844938,6.477537409219923,88.5984847277925,-7.615472630645156,-41.31063101129486,-0.8590812485635633,-0.858689805745624,4.792921753514886,-20.327937714357443,5.231866755452343,-3.397244449124422,3.5166777031249103,4.33032611612992,-18.13286210386539,-31.308821729231834,-10.899507573130045,2.345675588731643,2.000207577668257,-45.3951471618816
-18.72845599322495,5.166720664206091,-3.1454629474001012,5.842266744350099,85.66670515980155,-10.068491325012483,-43.837560057979594,-1.1456921827984585,-1.3413469675630374,3.537547527072361,-19.519789101559315,1.3959890566474316,-7.976047747199704,1.3228120528274459,4.544323329544399,-18.262345756173325,-32.42229978183713,-15.783497235952595,-0.8551928763392029,2.5940826521876694,-48.13024925704172
-21.27856354993197,7.939577111282333,-1.029108469622277,1.020910761945053,82.73116733404575,-12.463252500607005,-46.746595217447336,-2.2994582442059226,-1.767080247120274,3.1515439466202295,-17.30722399183039,-1.3357719852264678,-7.703117399097896,-0.6401002212090614,4.0644261777066015,-17.24258110306617,-31.283874443620203,-17.132172835140306,-4.35440323570298,0.8853834658674673,-51.60078425267774
-20.955761881545794,9.418705368555216,1.4375783933213118,-5.539808825428629,79.95700620958529,-14.192280582397187,-48.139631209876846,-4.264764472173832,-3.1578772095166188,2.2625438014912227,-15.757862941960786,-0.9992069383214983,-2.171420686449479,-1.0514805015456414,2.794254862781482,-16.145718512433017,-29.742039306035025,-15.768167327231236,-5.642134891018787,-0.8894540884939649,-54.25445868504192
-18.270052284020522,9.192743388872525,2.3918224947615867,-9.784881283919258,77.19539864726873,-15.42090840758514,-47.0904542867983,-5.557870173405069,-5.588304471458805,-0.18005284763152218,-16.331345718114466,2.4655818599613357,4.395842144867753,-0.13158424640182342,0.9917599393793228,-15.348931927340637,-30.308211163945074,-12.445512202364277,-3.869829654975013,-0.7547656338210826,-54.88443107132713
-15.677571583990392,7.353431539576449,0.9138074847008539,-9.012373689858704,74.44927688847554,-16.738936584296866,-44.50409513466187,-4.225468816914832,-7.363625723947071,-3.961309040981579,-18.447404979174873,6.713331075107926,6.869170732531565,0.7398865460720465,-0.7234462992271364,-14.149711238360691,-34.23118030895448,-7.482747412242387,-0.5671275095189292,1.1195888260597715,-53.8279247386376
-15.419454305644486,4.432465007322432,-1.8271235761775455,-3.988390540269291,71.99258090678781,-18.302719378405776,-42.312588139555686,-0.03017077750557995,-6.189926803943473,-7.585288914366565,-19.964845946668895,8.43240289065708,3.8458253364037334,0.44280751937619084,-1.4670049046606068,-11.902316894824297,-40.46355355232564,-1.8537881318263603,1.9075000324824738,2.8002187219936574,-52.84707614963823
-17.625637968531258,1.3751657436935987,-2.8654491933866346,1.5634686164915939,69.90963410993777,-19.645027797236573,-41.7180396791614,4.562377293925927,-1.4722684659384044,-9.257566642933233,-19.162382209410392,5.8781864574440075,-1.1247738281544581,-0.8126966113285372,-0.43937667733567887,-9.339952304466706,-46.35334912526157,2.3358047096377974,2.5188618016650004,2.6187061746366687,-53.67494178166854
-20.468881116543134,-0.7626645678716812,0.4983521957303505,3.842350400631539,67.63970237049357,-20.3691531802084,-42.1522994932752,6.121900327893998,4.528313112655132,-8.235381187606734,-16.312155609595823,0.41136482089049486,-2.9039675659570605,-1.734865927968458,2.4629006746464426,-8.446479744992699,-49.526330277236646,3.406065079664852,2.232763640824967,0.721825658017771,-56.44237719822595
-22.11570328618167,-1.4209339928368188,8.168519282650369,1.9668518423715646,64.22486213248868,-20.817023959203688,-41.987353594083785,3.4582841791169683,8.063421510139673,-5.526758007085695,-13.46255886684812,-4.416086277279858,0.48165135278653604,-1.2828320036259688,6.126556401657455,-10.619322035779891,-49.45731374816902,2.26371818610829,2.5271923584125973,-1.2099034506481927,-59.389295690508746
-22.359222626012787,-0.9891439279942499,16.534982993505235,-1.4310522362283011,59.30408818681717,-21.744311944421455,-40.25647943634711,-0.8732326233176879,6.802574315539269,-3.3964003968785192,-12.685987626499413,-5.654588589421547,6.163548117656377,0.24270119109045785,8.456181984421296,-14.901688159631856,-47.519229486655526,2.231634435527833,3.4639949880375696,-1.5657630039279262,-60.33374896766158
-22.373480029098136,-0.5588543173360888,20.64060395223758,-2.54929956046284,53.934861165567426,-23.210257529922053,-37.765674598345825,-2.575315155949813,1.796594565762399,-3.9652038179030313,-14.486571776986109,-3.334853423679396,9.363720251213135,1.4469783245634953,7.597158969684978,-18.251569975471902,-45.638975385993675,5.972365636059236,3.4289944868839375,-0.08896326669408505,-58.666735995654456
-23.03587315231714,-1.1428858237323656,17.77762421626703,0.26246070171788083,50.19783504084411,-23.942902803228495,-36.46748021126499,0.43911530702917556,-3.260808411917556,-7.843714339149759,-17.670716753828874,-0.20406949886894932,7.981813757505854,1.1408467217580105,3.4371524560741165,-17.945889917608284,-44.95422846289701,12.23754595004506,0.8950669655775298,2.170664913143876,-56.06450435555333
-23.719886687871398,-2.9054790414463048,9.697523613122819,5.036860048515834,49.59118146647264,-22.326587097982014,-37.73735999562563,5.960183912035198,-4.893180242396522,-13.660251062923079,-20.47424812830428,0.8541773975722151,4.485057261527704,-0.5640736010581193,-1.9079768689501417,-13.981821998273713,-45.522071279676545,16.15677444023514,-3.609041633772469,3.9038816121667956,-55.19844440033584
-22.900232520769162,-5.063559647492485,1.4051401612591734,7.906802857354238,51.46677956628861,-18.352176575234342,-41.11416966245216,9.458790139902423,-2.380545270694778,-18.849864994468586,-21.75013108685159,-0.6133061507309008,3.311018902189736,-2.4256129107187543,-5.3326453631021415,-9.158313607316277,-47.01116433620443,13.525909151895814,-7.439667844236234,4.453713427775649,-57.48232064553176
-19.89494163127378,-6.570307856320923,-2.5537051389258494,6.463972269780342,53.02181774329145,-14.562074274650847,-44.627151057559765,8.258251514670222,1.9976304336074326,-21.226365308951742,-21.264710194631846,-2.5031279573674836,6.4481678286554756,-3.295190080730395,-4.9665266045128025,-6.734149591543558,-49.36098828270034,5.27566271354299,-7.86521396085706,3.9351112086665667,-61.88170510425431
-15.899911521760664,-6.925515220846263,-1.3103393652334847,1.7602232943159264,51.221161407384855,-14.575318871758487,-46.26460872485341,4.018548461192376,4.9625475555046625,-20.24294224614674,-19.273948517567533,-2.5278785984829732,11.378001045364956,-3.1738570988900565,-1.6459169206557347,-7.75803548121673,-52.63658941658463,-2.520790834276703,-4.393160241173847,2.804506680984984,-65.75418178702611
-13.016109878898446,-6.542725453609801,2.2772336403034594,-2.739109535114956,45.186272588440964,-20.096876435279285,-45.28402696850339,0.9808313533863213,4.733474795784829,-17.224190988423754,-16.132439538954394,-0.6929184845184677,13.328203713212911,-3.1286748989938222,1.8000381476676894,-10.602101837790363,-56.31919530060058,-3.7187670528793864,0.7362817586011019,1.4709294956621959,-66.87953115011395
-12.24173633938253,-6.3790794623561355,4.457598785092223,-4.239608263156149,37.04593822350766,-28.97989862487653,-42.3337374620982,1.7671303215908742,2.0249126703315055,-14.521895733989457,-12.336429005404055,0.5178004953236099,9.763059057445748,-4.177549962976117,2.9429787343698424,-12.809368360002264,-59.07045332415964,2.285778971181081,4.272034180039011,0.22458286538069916,-64.91716787522219
-12.573790148588195,-7.104994471691505,3.567510484372313,-2.8903554949039956,30.374073015582056,-36.29077649802666,-38.71264371226854,4.891869678770426,-0.9529145452150192,-14.16660117159313,-8.713878092214179,-1.4917774695972517,2.974323256401017,-6.158489212556528,1.7345289376247623,-13.236291433594308,-59.4435229126948,9.616731170764094,4.350751854842553,-0.7108235304257137,-61.125720587789445
-12.034652156950347,-8.457865065833928,0.5356227897666037,-1.1507018713709056,27.430688114866797,-37.81315871208533,-35.57775424594719,6.385221698345569,-2.363875327974478,-16.84886390339905,-6.241567518844763,-6.81342287437306,-1.7613421402516956,-7.70074764054739,0.3029617307343644,-12.486727585137459,-57.088072128224894,10.889898872524476,1.549101800519983,-1.2102352059277635,-57.07222703466496
-9.6526245940385,-9.280480171244243,-2.9960395709983807,-1.129437818498726,27.469077022372794,-33.259514638781106,-33.74597618900521,3.9413474440741245,-1.9147246503298314,-21.707669752796832,-5.491777276286703,-12.592154516685277,-0.7703785690698024,-7.3094353156178276,0.7582665065985701,-11.518312015496889,-53.181795511591446,3.7122434608249906,-1.9999729268189954,-1.3471710850605767,-53.73627254893675
-6.374631576424526,-8.278838252682046,-6.461564230228099,-2.542916681884382,27.570605180586497,-26.61774009920632,-33.701225874956194,-0.776608544119922,-0.5916649291991336,-26.931717105131394,-6.211732440650954,-15.227802201715484,4.615698095714143,-4.6394036535254335,3.114943555688292,-10.40270298761824,-49.66612185996909,-7.1426221992143955,-4.308867049353511,-1.3130659951003985,-51.64407441166813
-4.042335031698923,-5.0212966969997215,-10.135669589477338,-3.2036345035899663,25.165741194179667,-23.26682234218684,-35.25629172809877,-3.888285764020246,0.44294436755164535,-30.751043315181626,-7.46937739384126,-13.227383740920537,8.928550984199738,-0.9245176887679015,5.293879869913582,-8.673291123975503,-47.91573558871267,-13.701535467397372,-4.685604623841609,-1.2630274085011117,-51.436707285351474
-3.555188895961689,-0.43539537871585,-13.414310401926064,-1.4853650950800599,20.071058271698973,-26.224389518449744,-37.07638470521745,-3.193622272333929,0.7653963373486894,-32.28890672352757,-8.3471118233954,-8.208402926223872,7.010831919528744,1.7445539716222027,5.246903954511825,-6.658771330214636,-47.89509950354487,-11.399320259693015,-3.6928766835850064,-1.2151487307211182,-53.71265571088564
-4.129539435447182,3.6940910371601148,-14.211502566448285,1.7808517993738604,14.407013467128849,-34.229685613480264,-36.85309319736679,-0.2559356277654601,0.7485177558975276,-31.925846332277978,-8.50037337086687,-3.450442362796805,-1.6761920193782904,1.7809462136964442,3.0287297986305366,-5.970641067483767,-48.490531357596936,-2.5358597573177306,-2.397989529051037,-1.1633938201076273,-58.029673697608715
-4.275147083168967,5.924061852431768,-10.76802368373175,3.934467994922906,10.65462448870305,-42.92062357630019,-32.67020778433686,1.4120173303712424,0.9596418602537661,-30.97463518952161,-8.113835062070484,-1.4839029360883722,-12.446264446546499,-0.8680648039103291,0.7355906100404294,-8.101472792890672,-48.501332948424206,6.013014952535132,-1.6857540119519772,-1.2366545320453233,-62.25450529688803
-3.348115479539585,6.110254163932069,-4.218554070540446,3.0120680911901596,9.63506403603153,-47.84259991092675,-24.76160899890077,0.11651627078627957,1.5533222229124846,-30.835253471530894,-7.418485051722238,-2.6959833791200696,-18.862893138493334,-4.705298521074947,0.40500406303184755,-12.37155649486719,-47.40123176300139,8.402890509018247,-1.8685447290973642,-1.6344704724808783,-63.45731982950167
-2.0736467241616756,5.375301653896923,1.2057228582457378,-0.37073320115416364,10.107467281167615,-47.0876189399224,-16.001465983402603,-2.359898030104259,2.1845810684631464,-32.112419144077556,-6.224349692496467,-5.680051356820615,-17.507612019748414,-7.6009086529339704,1.9458033045041565,-15.597562737701345,-45.43011331398961,3.840009742397824,-2.545396297855202,-2.4423622671761116,-59.99008956545131
-1.635779209145881,4.948763444453791,1.5156451388962666,-3.4970742753111166,10.004025780112322,-42.00086365655044,-10.08075534930545,-2.7748135856703096,2.435551955691613,-34.269085544860594,-3.9180015548703495,-8.44943485567298,-10.37037264998924,-8.065320477333522,3.206339844013684,-14.294751559921119,-43.20987472416017,-3.94020247059238,-2.748994056797977,-3.449377354070893,-52.9845571939156
-2.4478482424473236,5.031095783394125,-3.1077106652904813,-3.97402963339417,8.011289100450846,-35.94713187722403,-8.5853424858406,-0.02539271788541919,2.218580653796648,-36.15432621524819,-0.04497720973344599,-9.375830362516176,-2.934767156790542,-6.050699185795305,2.162644107835227,-7.697855129204278,-41.34610017709227,-10.344420601296935,-1.5807249883443082,-4.238926638738231,-45.726621753504624
-3.8131532932411325,4.765336143019072,-7.735140430419786,-1.7545438680015386,4.200345527280362,-32.12319839882299,-9.510115269139446,3.611958260420643,1.763211999452945,-37.01071904318481,4.961567724225172,-7.560336780566298,0.22816665393949087,-2.823007846756799,-0.9683340057834258,1.1667784228680826,-40.2087717434674,-13.160725685802959,0.9312985834500906,-4.458207997152592,-41.26431660139238
-4.6417751603703445,3.3860239829528433,-6.779557187457876,1.0726330508064446,-0.5151195606720194,-31.79062355691804,-8.777505888812623,4.926759224182325,1.2367969004292365,-37.15613602687379,9.52122622502827,-3.0563113306104026,-1.2793415260881271,-0.11328455314026442,-3.8121027368172378,7.458859771647917,-39.81012241901044,-13.011859699979265,3.4841647506282154,-3.9403526099021917,-40.33852968548535
-4.323907234091007,1.4419673052942956,0.6755675777005604,2.3452959139578136,-5.216072470161016,-33.86202345188857,-3.7919911202537335,3.379272018120866,0.48229765782742096,-37.67636295586627,11.543492837260061,2.8482837341161966,-4.036506593997198,0.9790232725814758,-4.017729035620821,7.967771081314399,-39.67805005426274,-11.380808193309049,4.2142934952728535,-2.6786187040571914,-41.4296744381706
-2.925229204783551,0.6663056282850515,9.52438277332767,1.636924170013649,-9.356990136402665,-35.906169851363956,4.096534765708561,1.937339540893051,-0.7676195239719648,-39.40151255682191,9.79696698624914,7.760611205468625,-4.238303116468032,0.5141309542062944,-1.4065992472016715,3.269172613630821,-38.943449046859186,-8.685862058065211,2.230315492273517,-0.827395702160999,-42.67347202524168
-0.8417030391908331,2.4359798939075965,12.958343484467484,0.239797364681392,-12.61057333525666,-35.925666744071776,10.571091137459081,4.018895187794596,-2.357824855597234,-42.0744159265919,5.151527615326968,9.317565171392616,-1.107502335330354,-0.5829294526621188,1.9197528027654385,-2.9530475647851735,-36.8684051500697,-4.2630199611284265,-1.3163067478795913,1.1673167232913801,-43.58033068519687
1.4493472278135755,6.269016799505513,8.50306151032747,-0.40894341269338286,-14.734719169509717,-33.74058397067467,12.08563991991393,9.471141760244144,-3.47164035142099,-44.50800343671327,0.5083360868170037,6.929616593684393,2.6730838228168494,-1.3660859399425869,3.5689879806111255,-6.449587465655765,-33.454544997751405,2.1839851476739063,-3.8114408874618277,2.4930992239191987,-44.83837747833893
3.226690018409035,9.849588664035508,0.2408907885986542,-0.16026732174480363,-15.83970255173837,-31.000692499022144,9.125636444671153,13.807309433416659,-3.10618341979786,-45.69431993509472,-0.9010938628192051,2.622028492386774,3.652064026776269,-1.5892937679882224,2.9857618411849565,-4.918558979974058,-29.507455754850287,9.370232295642525,-3.1925374202130965,2.2470239066706457,-46.56516113077369
3.5454359084689595,10.789394790288615,-5.013022817330169,-0.03466667915325905,-16.64592856375687,-29.83963582942252,5.999460516261394,11.996974380045863,-0.9562984537391988,-45.81791671178031,2.095214901414204,-0.09409427107873336,0.9695949814329015,-1.7125390071306945,1.7503610310510247,1.0087053845769485,-26.031003200604452,14.832372271618372,0.30262468362005723,0.1690609216696466,-47.21199579099411
1.9210378525977985,8.558740533137023,-3.9161661954738722,-0.9676626509681433,-18.24444745716697,-31.240943325587594,7.278079177992362,3.4507593776751313,2.076135904055466,-46.11004886233948,7.461581837530595,1.1135248302673246,-2.7565865313619464,-2.346162335727625,1.939135058015016,8.404992868378217,-23.410755413192724,16.53725838163347,4.183728397637693,-2.8189161420443503,-44.5710845960234
-0.8710750023860352,4.857409562668093,0.7344395509814712,-2.7284188969192247,-21.333682855872702,-34.450790273571506,13.976623225460976,-6.613701916967086,4.3782927061485974,-47.57749982348298,11.23883398197257,5.442749895243031,-3.757702536419445,-3.6062784614042727,4.244160994996557,13.61050536656452,-21.260423732128125,14.26999905382809,5.605329174341748,-4.94611727518378,-38.13215338474637
-2.9028152592442296,2.0645319063853216,3.182198198228077,-4.129424658410542,-25.513072106935063,-37.80871164968426,22.83069800586213,-10.990127536616441,4.8041220583394715,-49.81669974855851,10.478497178780945,9.521766543388825,-0.548029866305292,-4.96953547090226,7.490603421681918,14.081642823480781,-19.063656918364135,9.71060688154789,3.5052633195662772,-4.815230052255778,-30.293773558616795
-2.4149430729697245,1.2737206564472032,0.43570009552373623,-4.191045323222593,-29.407084354400496,-40.09730387656273,29.266113241651414,-6.51742766820912,3.527550512817351,-51.18347128641365,5.545878255688268,10.231000268696715,4.626954149163054,-5.742811815474502,9.709502590823309,9.840686136068719,-16.931069728327294,5.247683343426171,-0.8309852896642016,-2.583507683345657,-24.830086682794693
0.7175157637984606,1.8304884053536368,-5.067397943454091,-2.9859757617412743,-31.69103875682201,-41.128974774973265,31.162836036893413,3.063281409868755,1.755329501148176,-50.289956506609634,-0.1199438086872231,7.387395179329222,7.751120325263692,-5.604945382112556,9.587559396287315,3.724933943306688,-15.513245515429048,2.526621592941107,-4.998548141596578,0.02128792046130301,-23.74069983445721
4.813846660270624,2.567673686043416,-8.186210806543851,-1.4779000844227763,-32.12487536320674,-41.19626696626073,30.148786289724022,10.164307089365797,0.5889666604274338,-47.50625388404149,-2.7102103468627092,3.8976585041989984,6.6311519465160345,-4.803071583449196,7.089358469437483,-0.1094764949121636,-15.046673105272074,1.7568859497405394,-7.240062640641635,1.0092437899002729,-25.463243463206513
7.838991410803704,3.2309444942662235,-6.150128060728622,-0.6195006730587354,-31.804739891795606,-40.20379049748495,29.58557468998813,9.681382109097061,0.1311587971885665,-44.95303958045172,-0.9017202194427254,3.109997912848059,2.92899695870906,-3.8629810167098446,3.1122952386531173,1.0745215124273368,-14.646166842357616,2.0544797370970542,-7.211672930125655,-0.2494918488360246,-26.21183212548761
9.181436148651558,4.524547387605233,-0.9774812935876875,-0.6075062830067934,-32.358785734049164,-37.62876762964472,31.41947925096451,3.1310135827339214,-0.3814056753466397,-44.80702099280378,3.54625822015817,5.718698643175364,0.6172470737241733,-3.1573258554805346,-1.1421352927404451,6.549191516205803,-12.854562431105258,2.294407731097082,-5.496779064896596,-2.550933382322377,-23.364889353433576
9.949535240576676,6.750145827958872,2.935493317040537,-0.8980087346109109,-34.75752600573438,-33.436750936605605,34.88858064099552,-2.999445001825106,-1.5968951981546429,-47.40496646052023,7.742688203358548,9.172774019599048,2.4165923235543882,-2.7291762681450527,-4.521123374463076,12.515435573307904,-9.140061385328568,1.8359009033905793,-2.78079720269805,-3.904336078437293,-17.78145748970965
11.554819673677567,8.723384066412384,3.285482974705422,-0.7614702662891005,-38.65018612131874,-28.838119070961675,37.94286623052464,-3.045903635751844,-3.3248989928259314,-50.86251881549799,10.12394299949565,10.028085502921584,7.184132568678564,-2.4623520194896997,-6.1023474130285775,15.010449761881667,-4.76972880828102,0.8510437301477927,0.3384734501929909,-3.1699780330644898,-12.896095181340353
14.15182358827101,8.357856993859116,1.9012802997923108,0.21382800026608106,-42.65410048953307,-25.81625035282424,39.58595933418107,2.9595923853885147,-4.692685164724005,-52.645983936002736,11.29062114131745,7.100709951435652,10.828621541432375,-2.309122829090227,-5.543238176297286,13.058776430917334,-1.951362436006434,0.1538936672194211,3.0780240138172723,-0.8845294542482268,-11.570948512940735
16.640493760607768,4.641484900827248,2.5368762026059257,1.9051790857743272,-45.33828520488585,-25.658200091865464,40.678352281743074,9.498125445311523,-4.958924546594337,-51.74492065070325,12.701397426895486,2.4707708706227742,9.87729373482492,-2.3034163329135717,-3.4485451031790793,9.374068339959337,-1.7123420863568022,0.647175061338741,4.442507669990164,1.3988644832502042,-13.623633461586586
18.07380383593736,-0.9137891810802319,6.817070828737309,3.7166750705409095,-46.25362501984269,-27.89588542310246,42.547625972388296,10.467293581255593,-4.08263087310714,-49.484716416249675,14.864562386219978,-0.5166463771306504,4.471387240254607,-2.3550561836596087,-1.1774357907440156,8.019758492838477,-2.5990669593283577,2.47555422907378,3.881924174806156,2.50714515401508,-16.162374932555462
18.849500283454603,-5.0486849502942395,12.212168723387414,4.838126045199604,-46.27985505570132,-30.728225373705712,45.126072380757755,4.291389980595969,-2.5627130352727323,-48.29749488650822,16.890745192683358,-0.3336824196442971,-1.8208398619226807,-2.2095538161997803,0.008479773567259485,11.024997971985131,-1.7197220661068666,4.4670685784650805,1.9798717055140282,2.4579767591486568,-16.134938609134345
20.179071893472994,-5.305140969648226,13.92885917867001,4.5838086908855304,-47.085461417740404,-32.56982712969461,46.69078285610964,-5.129916695938082,-0.9400876615754483,-49.566114618845916,17.590942329096695,1.5186209911751056,-5.161129416354793,-1.6889150885467057,-0.14145829772114915,16.884545457803586,2.6097050670971864,4.551165368185608,0.19747795971643,2.0777200330263064,-12.614189079588183
22.331677364907918,-2.123949309646807,8.960524744646253,2.8131222823852395,-49.99958421570008,-33.165203008137055,45.539465595382424,-12.025584017518707,0.3641753530026479,-52.50956310844491,16.744342531630572,2.218043569129431,-4.699442551175305,-1.0229592244151013,-0.7782401766962459,22.03250881314364,8.971428629561874,1.2499608501091668,-0.26817585140817346,1.9853536337015691,-6.963459157814356
23.77000697788005,1.4271056578809773,-1.1654856567511462,0.18003626338531764,-54.970897319127275,-33.32866405993754,41.86036569368494,-13.474275484610272,0.8188047226221196,-55.06846578089374,15.219953303365166,0.4583949593417862,-2.9145222452769994,-0.7928897997470924,-0.8942346514183452,23.770750850390748,13.643096694363102,-4.710327162395695,0.567312199063269,1.9629254310042732,-1.2310865328107568
22.3593747584932,2.0673643615770914,-11.133500179725203,-2.1494199474793847,-60.39036051129001,-33.80182300473873,37.951281367514405,-11.18353691796284,-0.16312641634789493,-55.8397898817344,14.018010690885827,-2.359246245106886,-2.8542980462282364,-1.386387736720177,-0.4146450003283493,22.03244962351227,13.501212506202005,-10.077300375247813,1.62550405289267,1.348588154756403,3.3609357951208167
17.73312062202826,-1.129097640046223,-15.375320550913994,-3.2507786845771225,-63.9955372737613,-34.508799517715346,36.495640919622836,-9.133060695932489,-2.5371894256096263,-55.16233942608763,13.450198828559206,-3.6206573119725904,-5.027999989934965,-2.474548516947649,-0.28698815381688414,18.816401907322266,8.652913223530154,-10.904768810587164,1.8906184706317135,-0.10658439380922413,6.637568021311175
12.283995181569132,-6.151128846322781,-11.737844000458898,-3.0711481160649283,-64.31911004215763,-35.04230196080609,38.43473004991621,-9.535024821972275,-4.975231356573158,-54.41892529479502,13.268153658280767,-2.076634276503233,-6.845419846111701,-3.0609979815283994,-1.4623704161051556,16.255262991595995,2.4043684118751294,-5.467920946614282,1.3453392673764586,-1.7808826566230058,8.869835788600255
9.609958281262946,-9.827544791764485,-2.787459488299292,-2.3354100602253522,-61.71873333693558,-35.532779654037135,42.30926945095654,-10.871560735569087,-5.324750191060082,-54.31692957129361,13.37526536807322,1.0273826961503745,-5.239674124349387,-2.256673158541055,-3.7785518869903507,15.207594160545787,-1.2633077427696158,4.046225029002819,0.7118133810111482,-2.6229871507629845,10.319888753450964
11.55098932640354,-10.310996325525656,5.915632421615549,-1.8302086772225952,-58.146085386664886,-36.60002909284712,45.53370946396478,-9.597795471117374,-2.267470785464946,-54.041433890508515,14.048010910959993,3.2049374518430787,0.06895929622560981,-0.11957110786909642,-5.876741452792927,15.320155188345552,-0.4011571887971819,12.730737511621996,0.4470021634741079,-2.081124739693349,11.319380868177767
16.553521955009103,-8.187834396433331,9.407920914027805,-1.70175840249745,-55.81873139467396,-38.295299256591676,46.35785522999395,-3.6481381073111177,3.1468348830641393,-52.09213261080579,15.451091472735163,2.906674342662601,5.887492600700165,2.270146925999943,-6.310010516307599,15.910703716196913,4.097472828233765,16.277524401557766,0.13067415314902497,-0.6024989682238637,12.407641890013224
20.953766653499738,-5.58290652673497,6.372522381378799,-1.4967335573326959,-55.84468411375186,-39.373531571384135,44.91764248726471,5.415739224395638,7.753638088332307,-48.027078443187904,17.075778635968526,0.5281301804689926,8.250671529678952,3.684573632683908,-4.777991356440322,16.66028356310506,9.864399725317876,13.973720609177947,-0.9847033193708274,0.761058373199042,13.950837134429278
21.93764434123463,-4.316016874571886,-0.26210840844038774,-0.8498285474154934,-57.804726492345644,-38.029412909798495,42.712724314711494,13.39291763079254,8.51617937890794,-43.36034922116945,18.032832015568513,-2.4789054275982716,5.946916523765834,3.781852034275056,-2.337998060272024,17.57229638677441,14.921599817604491,8.850499064195319,-2.852886362578534,1.2575344157096728,15.692285083281753
19.566242862910563,-4.687348114036941,-5.680234213648169,-0.026424964414263452,-60.49001559858365,-33.89382010900786,41.280647765529736,16.579736077707103,4.885113527275252,-40.579145054223204,17.874269097205364,-5.050761151571739,1.6477514484162143,3.3379843935056215,-0.443210396488364,18.6102111863294,18.412839748843652,5.011744787881236,-4.303097851430116,1.00487295685068,16.908136871742546
16.267658541978182,-5.712899396326414,-6.795470619821684,0.3293702518617331,-63.01171481262602,-29.081222524920477,41.20793914877522,14.428091010347119,-0.8303994090427247,-41.13520198361569,17.043030366603148,-6.96751898702992,-0.5138368214440991,3.397301005633507,0.19553438619485575,19.55145765124579,20.213715018902136,4.398017252582869,-3.9857918326437227,0.7363218031783321,17.29294244239536
14.578589079623132,-6.246186949625069,-4.363617479105928,-0.10117973730927843,-65.31560351659661,-26.966715733015786,42.11346926534506,9.647680872563642,-5.426706957228783,-44.23162164600019,16.374518106490896,-8.118754157007341,1.2295589388052917,4.133867199954802,-0.11264259696653012,20.17819799322693,20.469156077304014,5.72655079866259,-1.6685943354315533,0.9776893737911869,17.625730209915382
15.227835721671404,-5.8914320422696775,-1.9514997053741534,-0.9434812556813328,-67.80926854518937,-29.331307243584803,43.26774042536472,5.839884047924027,-7.2594531541170895,-47.39781758101784,16.186836527532986,-7.854842410737062,4.689285981536328,4.621749903167489,-0.6733224023588869,20.349319858429844,19.763032419413214,6.349985731832248,1.3807075500584318,1.5499633444519691,19.320825401138656
16.988630507145903,-5.124294699084448,-2.6726737858118144,-1.60856599795751,-70.62354523091466,-34.50093978573369,44.17954880204195,4.648857483065763,-6.920507647408898,-48.36883570834269,16.08099295387847,-5.509091998487186,5.752062916477145,3.768978981775699,-1.091466490101911,19.963048123415202,19.429886452728365,4.8724233857395,3.386835200571524,1.7951743073390933,23.026895048626276
18.079270789827554,-4.6111121732856475,-6.5218906753505355,-2.056490865099711,-73.30998993105527,-38.43222754033121,44.72965784374207,4.898467792944616,-5.756823875028116,-46.673522821340406,15.696075217218286,-1.5687907199617057,2.2260405020253202,1.517346784487859,-1.3340105791353079,18.93945184831406,21.057119373149398,2.2059863344175947,3.4520414557891943,1.2965059210921386,27.85301440507898
17.693560249215814,-4.46473623642834,-10.573752325343,-2.892641207137956,-75.21258094268885,-38.06784526067385,44.96980250056431,4.1630621784714705,-4.151167427275539,-43.64354451708361,15.445702081249008,2.056769239966718,-4.076338698095711,-0.874789025895695,-1.360657198792989,17.431564575051702,25.10296960899378,0.32035853425252325,2.049607124399742,0.29791502692709293,32.00529461770576
16.44698527506607,-3.974445464482869,-11.819826552110172,-4.475665689781254,-76.02059431136323,-34.00327691955959,44.90477628036076,1.3336152970952622,-1.460061246742391,-41.091461928479745,16.16498315685589,3.3026229236608846,-8.832447597062652,-1.8333530487806715,-1.0279624748592902,15.94259606337251,30.051587601402595,0.14719316566500967,0.3093651607633199,-0.6295925937453934,34.32641604321901
15.71727607496672,-2.10873931467208,-9.86354607454223,-6.025439162657225,-75.96828075091369,-29.921722437045485,44.51870461497891,-2.1629021925981036,2.454994863054279,-39.96827582827014,17.80884997297722,1.7075838493347955,-8.869951503568752,-0.9399639506539852,-0.4354637643026358,15.034471507646396,33.31499701566621,0.7268144736747968,-0.9276420545534889,-1.306641112449323,35.08570576949563
16.444648183281856,1.5714801377528422,-6.966414339162958,-5.922019224360825,-75.60963051628184,-29.249084089766452,43.9255735106033,-3.6706198034469146,6.101774519220772,-39.96385284280457,18.816132494592896,-1.1611388416082407,-4.648596808318164,0.5693766786204055,-0.17881374117586046,14.812792160216556,33.47939244607726,0.3517101001768612,-1.4163362524807432,-2.190029464845585,35.35076163951164
18.349152216657654,6.193573326493603,-5.5571167121084954,-3.2266521871049925,-75.44918262968235,-31.989677670435434,43.40668413350003,-1.9744588360967015,7.253675989214581,-40.114140606010864,17.228821140087437,-3.1790451893056444,0.4513304513044978,0.8274255270706807,-0.8726136676263999,14.708767505336517,31.892400520320905,-1.5783350733864694,-1.1404228820677407,-3.70797835330529,35.69556079785093
19.9500422556604,9.632707501389445,-5.810591831339206,1.0496495195366229,-75.78427404667379,-34.6831420357972,43.222131514360356,1.0695977598908915,5.101361182752529,-39.67720067809653,12.658830720997504,-3.573303013109047,3.1849363151440944,-1.0319243551843078,-2.2163024107845306,13.997171299552791,31.810546362669495,-3.902147938977876,-0.09775487672837224,-5.3250266858201964,35.86398159625979
19.483026646806763,9.669993262524613,-5.749002173499003,4.370893828431565,-76.73902989793257,-33.544157597814504,43.4201381179435,1.7706383095580813,1.3321766011758909,-38.56861052260611,7.160072086820259,-3.263746176006006,3.014875092086652,-4.0730745739118275,-2.6922894606776193,12.721235733119492,35.52232738489144,-4.946312261107364,1.3798395715249785,-5.482187604399961,35.77751744420448
16.273484241466996,5.689232014202917,-3.7151266505032474,4.703021414387061,-78.23447885618275,-27.980703801439866,43.754011427767786,-2.102168598702943,-1.2071702024640538,-37.23489467959246,3.8806621846415297,-3.3211553495172197,1.9088230695634345,-6.232967827765209,-0.6288915450256779,11.967107981661156,42.06437836643117,-4.264179496141908,2.315740758814229,-2.8304917094347273,36.46642868053499
11.565328218047629,-0.33335934846266824,-0.6188734673953991,2.3601922132091975,-79.87027586794292,-21.388390037085816,43.8360567345857,-8.830371005580353,-1.1445431503720258,-36.231663746922905,4.51203135881328,-3.268405546998877,2.049383256883032,-5.969044866049025,4.03219351966378,12.957796236862066,47.77130631383687,-3.2361981241175677,1.580191983234715,2.202015089772557,39.47753903911282
7.921185299376257,-4.636083224119815,0.5448023104134609,-0.2233426209834264,-80.91943120183511,-18.413552840379104,43.379410028132625,-13.619367991239693,0.22938109773421922,-35.85325653473741,7.950628325573336,-1.339168476568207,3.7261019153196857,-3.459000855720553,8.999637867730335,15.662486204932048,49.39417555033005,-3.838845231354716,-0.996716872435198,7.068463364064496,45.05055233417242
7.346488219636934,-4.088067483338063,-2.422529841556331,-0.7606079539042101,-80.67937486464686,-21.01322343956659,42.364635586894195,-12.278430300046672,0.4381216409083857,-35.96093106169772,11.477261195635775,3.481949777593912,5.28198727278659,-0.3926020965851067,11.030456226910326,18.353116562559453,47.02702075782874,-6.621768361355775,-3.947009016656776,8.648554267449551,50.9461568769647
9.56375648344465,1.4196466916060515,-8.3876023918184,0.7156998597256378,-79.03995749574119,-26.610131314818915,40.98923533364231,-4.736057084364482,-1.4986462591633085,-36.01799676133534,13.264403360245506,9.699613660812926,4.89932500929322,1.3125502678270802,8.50652090207722,18.77507919887644,44.072005809151804,-9.765033601113494,-4.978764907138235,5.681470973704195,53.6591042442703
12.054653514696161,8.622338600227838,-13.287661249720927,1.9504690397047844,-76.74168969276181,-30.062597346438054,39.48496817408343,4.686191637464169,-3.9717043204157374,-35.39865538641007,13.63973616517811,13.910844988329632,2.2671949353215672,0.8898516747614611,3.0064861134304475,16.132847670656815,44.24108405335322,-10.187374559938004,-2.899019781201072,-0.024455007261054318,51.40486723780633
12.146576724022939,13.168558800531386,-13.255371445418572,0.8077074836449346,-74.94483083081448,-27.809790158164574,37.94349132821793,10.56292978555947,-4.396055566540495,-33.84497338493667,14.004984526841103,13.540657708206648,-1.2634787881897984,-0.8377426175771707,-1.7344875212727153,12.058006400590454,48.20417389624569,-5.913742698578073,1.1385361906945042,-4.808565284889148,46.04294560534128
9.301218264208522,12.89462080234097,-7.867844653685984,-2.420590845356365,-74.42738311428256,-20.87983244114594,36.35371099871838,10.376204531800667,-1.83812308000859,-31.760287591591357,14.764145372558906,9.232285065510453,-3.86476714185809,-2.2212758232035403,-2.737050767876822,9.426637161434792,52.94920356061184,2.057717981970848,4.3832661519592,-5.916359688469085,41.9280732525405
5.56793616598586,9.327416135039512,-0.6180997182839574,-5.106971331352784,-75.04351869351086,-14.304568428726308,34.705056576032035,5.948854467797609,2.0415161305059533,-29.95512690829451,14.641539598855445,4.443811020699254,-4.402976881106685,-2.040229143026906,-0.08638971456619998,9.961507974063322,54.50171526940633,10.067837306543872,4.7647576627646275,-3.477307091294712,42.4353222680454
3.7578572845776796,6.124029259474857,3.873541292072503,-4.741246136544731,-75.92627195022658,-13.224842668461182,33.025266884187396,1.4180283198558556,4.6108719115016665,-28.951668149861312,12.180512196625996,2.482856673308918,-2.6623240808584665,-0.3765567224099968,3.3661141320078514,12.855405384612734,51.53944804102338,14.09768523572192,2.6454971098217923,-0.07883029538612085,47.25924824540746
4.911658986686869,5.694408951530389,3.479040475522149,-1.4459714578885765,-76.21081533952204,-18.732745536964053,31.3959245250082,-0.17307799649434896,4.693586674540837,-28.391958991073725,7.75990790328883,3.697490897145267,0.9352354349051639,1.4805102418410274,4.614515203366229,15.56777267875255,46.62048689656511,12.583320282066547,0.3898225009005709,1.5400932472828621,52.946924041544605
7.462373822767642,7.127565671805602,0.09556361195888519,1.9674490665222273,-75.70330116287133,-26.845288878305176,29.822883207180354,1.2903210217216488,3.356212949311408,-27.216280272351256,3.8185078779312116,5.356819568802365,5.406199491829016,2.052522963653077,3.017262731261175,16.129575575329707,44.03180235919578,7.503995855299863,0.1098877200210997,0.6422894759278686,56.0730626861487
8.897656249873155,7.314270803465108,-2.0210410883074217,2.499509183749013,-74.95129118779195,-31.444147659475107,28.116047269385675,3.8828924647969787,2.4570706364667636,-24.56861698304056,2.7749435199996193,4.345000100865755,8.949361346136435,0.8616196153663029,0.5096907725929107,14.768524238372725,46.16052560391239,2.869063588005603,1.7743967687653743,-1.3093339389870104,55.98221093454513
8.171012162357432,4.236017317126423,0.16738382202070134,-0.34351460848653126,-74.79689222810136,-29.01936428534653,25.905828337326874,5.775056009392458,2.706255880378407,-20.72175586504956,4.688308272722702,0.1291451636797878,9.24246276987054,-1.1232364361670455,-0.5359910720818621,13.231883460966905,51.59955891773995,1.8054120309935877,3.389399820516259,-2.3113136945089874,54.59299317024898
6.554394067254231,-0.7624407722528792,5.904870077003071,-4.183507637830724,-75.77480581722247,-21.369459331354577,22.719085410270928,6.612756385326001,3.26284789221703,-17.07306683814318,7.070714992020125,-4.759960595155138,4.979990135508743,-2.1869070009393567,0.37246260559697353,12.568325034982,56.486030963359816,4.346939475588114,3.0440345769085155,-1.590906961194394,53.833275800414434
6.16226642575176,-3.8870357137912936,11.020470070531085,-5.959362738293008,-77.8551428369605,-14.084801956994447,18.2141691479354,7.237534416765026,3.1398311886547763,-15.087326987381456,7.136376819870395,-7.0436033882546205,-2.4640532546104694,-1.3029704544497607,1.5380690711903504,11.680924666180399,57.80091449314392,7.532657484112034,0.7383046324131344,0.027387778184653877,53.50874605189683
7.72571787224728,-2.3377996495734568,11.030569222039729,-4.518089409694976,-80.46196530615684,-12.057706806350211,12.521200814341801,8.546484217456996,2.574615740848244,-15.069695999076153,4.314416761362435,-5.53644915112643,-9.064967533421447,0.883454721197402,0.9515881425140731,8.210704153854776,55.692092917817696,7.822704857875168,-1.7333728002306894,1.1899055096514473,51.726812922905225
9.811675965769744,2.9716836043449577,4.676016688854791,-1.2565517790912906,-82.59909960953716,-15.746363620774368,6.409332776402625,10.634217634661224,2.780500483536466,-15.857376959391981,0.6647730080758114,-2.0371974264233756,-10.755432646947918,2.4816387192359204,-1.5271656218403669,1.0185899773706784,52.93423583283636,3.9195060504138652,-2.5708133963798283,1.2397526082802255,47.39662657575708
10.130849111642002,7.905166017745908,-4.674116597816078,1.5252360320623286,-83.06373516140152,-21.24085259190005,1.1189413226964824,12.638588153980631,4.3843734814640305,-15.735515767322129,-1.1560288556499099,0.36873405593698805,-6.848229204784724,1.962266902629112,-3.8398468117789863,-8.102282837769367,52.15769878718583,-2.30575829461856,-1.6287510927259894,0.5101944252665257,42.01300642708833
7.57851813593418,8.406074532554626,-10.867742805540082,2.7356201563216014,-80.94991975251304,-23.87354622865122,-2.146008048806711,13.082441742724988,6.351650490859177,-13.832511110943763,-0.31431103253093173,-0.13324503397296317,-1.1571935565729188,-0.3238314147450684,-3.5470421754906396,-15.312433500955489,53.42452427052217,-7.372433140141101,-0.2629857278302785,-0.2488580016525616,38.76039868072613
3.019574459504013,3.7439143901540977,-9.129962582743543,3.0180172089591792,-76.36783815438548,-22.120151833442733,-2.9979505626963743,10.507670473714033,6.776051665969133,-10.755600982728442,1.6474976393950043,-2.936849832134306,0.7749340820182029,-2.1532825614766242,-0.09400274362436023,-17.499044984326048,54.32879614397712,-8.982852757915698,0.2734079335362424,-0.5446706258392129,39.66121282697422
-1.6262887508699775,-3.0928635152061323,0.3415624446224901,3.5505455252989226,-70.87699584294924,-18.365714694303872,-2.3291085388219335,4.418550770685183,4.77361557253955,-7.992608981171728,2.396676430220888,-5.9078259627250365,-3.7058257802548944,-1.168380722270378,4.534606420231448,-14.566947401427779,52.39201610246667,-7.727486923850472,0.1659505384019937,-0.2527538090635921,43.43691170314831
-4.880606255227271,-7.895696993801854,12.065736946788567,4.614890046903671,-67.03513875135536,-16.235447871068498,-2.0192254240224,-3.8312443723088543,1.474593354307573,-6.609018378818359,0.8322309779535655,-7.310147457507785,-11.864575515943166,3.0009200707715644,7.382278811357286,-9.281443821958291,47.53182111774076,-6.472957758855815,0.6708684475427042,0.5566505918131809,46.32075707128371
-6.405083828561666,-8.421670282351018,18.742581001807466,5.422994527568052,-66.99699139893809,-17.081562227215365,-3.868740216691838,-11.04756048802866,-0.9241679236510176,-6.427580817157175,-2.270354740143447,-6.9067255131217795,-17.628977750848545,8.098301823158579,6.894230672107696,-4.967561864422168,42.373787270017004,-7.890142110297189,2.474074553109392,1.6022459177669357,45.18535570101233
-6.534729357320393,-5.606757452752937,16.149130203907966,5.161206832135419,-70.88707124601608,-18.97470496086222,-8.394447927324903,-13.848130491539486,-1.1708356716393766,-6.289625587105721,-5.277544828693944,-5.675218200503397,-16.560975287219954,10.8065955654409,3.9862502550419054,-3.249748641832734,40.028151194785096,-12.156374902534221,4.565854432949396,2.2338919848409984,40.255605539689974
-5.569577893001602,-2.251492281750024,5.901771931357908,3.962900091554392,-76.33372705772668,-18.870986189779977,-14.383343962724014,-11.177236875837599,-0.02642789041062743,-5.059337711358928,-7.023401447895813,-4.709676578339464,-9.564666121835826,9.286979770741102,1.0205434520021963,-3.7205903002625123,41.353085905770754,-16.615502764692692,4.86786560993872,1.6508804837347415,35.03008210400483
-3.7071629091225047,-0.7124798251916977,-5.901658418262582,2.7362802813914775,-79.79504810897058,-15.769406580937584,-19.639160251792507,-5.576201324300039,0.5895800997506906,-2.4939025797661927,-7.22870964731415,-4.414540500472834,-2.044978661990863,4.638698495660538,-0.24747717196965663,-5.3081461608764355,44.08922442052039,-17.669812416877374,2.1796357496369274,-0.3646573182914953,33.49900696109852
-1.5609319501107901,-1.416560343342533,-13.119811497460509,2.203201055544782,-78.91823843369154,-11.771218151208593,-22.49805474120409,-1.6176012114249687,-0.508256929626199,0.6762606124939765,-6.05154659808761,-4.6156113602263735,0.6880559880463113,0.12112620197002344,0.046042011891656465,-7.6025016980958915,44.69994288623555,-13.497925415500468,-2.4146901196396504,-2.8347587904127227,37.02593931193513
-0.35765135757168487,-3.120268501378443,-13.657101011340806,2.290404989318577,-74.20659760286779,-10.141016897971825,-23.00408710101008,-2.3130752166756388,-2.722976360023163,3.3815185580546157,-3.716935043074315,-5.10878142591312,-2.4865033046430005,-1.2260367181441003,0.3613959153982773,-10.763599073717032,41.3788392766174,-5.638358783673844,-6.107669074741391,-3.975263928074775,43.38431665708673
-1.3367274525869686,-4.200155464898682,-10.187314841172443,2.4894664493316356,-68.60318889755396,-12.275571276135407,-22.83511384344387,-6.383450734476264,-4.369547407064811,5.033577186357276,-0.7953313470863552,-5.956521535278943,-8.1634214014585,1.2333498559517282,-0.6104453884543093,-14.338665824396461,35.55751451586861,1.748075901622661,-6.546779847610159,-2.6346148724240757,48.534796861841365
-4.773505857320108,-3.8249083171839344,-7.193699280660573,2.568655068723059,-65.21037211029518,-16.415409997939932,-24.057969974116617,-9.116824745055204,-4.259773808860574,5.909914453061023,1.3385606235911838,-7.255419223614927,-11.73196425728148,5.379890364640926,-2.713883803144694,-16.75214401745594,30.66164863899484,4.464499741306161,-3.73523466258088,0.45521357760378134,49.62598166876204
-9.596365316949512,-2.2980539773591344,-7.17895148738113,2.7778973311823862,-65.00998716303585,-19.10635381031004,-27.638841532876853,-6.469578317869055,-2.621785681130482,6.8511196992557455,0.924548010531451,-8.808861596601282,-11.14411131171462,7.917768213171193,-4.508686620953378,-16.355573795361458,29.181544384219293,1.1013699678894673,0.0328707752007249,3.0102743720101826,46.78508557802647
-14.040467520975424,-0.6221691805861518,-9.214516765661536,3.2730804529762394,-66.43634829983881,-17.935300188106503,-32.84916179000091,1.108059091242973,-0.6509791605865423,8.57260814332513,-2.9735745717862474,-10.00764500249257,-7.840452182616062,6.7177433432702855,-4.562825590121902,-13.191503278449986,30.65691929422284,-5.831065360789361,2.125629844200851,3.0544960029409722,42.5570069220954
-16.768119509308683,0.19815211622088835,-10.597608516221417,3.549606000953313,-67.076966791219,-13.167755824696465,-37.88041747816748,8.57444081651628,0.6181223120884116,11.078794962009923,-9.421772329028773,-10.128132617951373,-4.668691032777803,2.2583558283024123,-2.6385514769104823,-9.578839880610852,32.28691756477741,-11.45757925277156,1.7465626240286056,0.7446772719840804,39.64277377989312
-17.54811082812799,-0.2802492802708376,-9.693699817434553,2.6785996256302194,-65.90670210306926,-7.219253708104741,-41.08617719802072,10.439652792797798,0.9373294144888793,13.606826593356553,-15.861354175911858,-8.799907623921726,-3.2129259421134972,-2.6750233738963196,0.10927211391212577,-8.60929473650508,31.5051054838859,-11.782640573055508,0.3993816662618235,-1.685410495831415,38.86103713152748
-17.049825202123486,-1.8378362379437276,-7.202841796164044,0.22666685633963857,-64.04408077016839,-2.757979294961647,-41.881222264713074,5.632368540974487,0.5343684305604559,15.198536538531947,-19.717853481367566,-6.3189349448639005,-2.914041280367138,-4.823570529127943,2.0521807441447737,-11.638541722387686,28.18395830934023,-6.503718746805321,0.32711155916989565,-1.8988443258089327,38.843326871657595
-16.10549944637185,-3.8532822200220043,-4.909402931459402,-3.1127602966474157,-63.42422194289088,-1.0804729968771234,-40.804182574893545,-1.193135265311054,-0.4735087161734688,15.500679238991214,-20.115403458486036,-3.630431682913252,-2.2095479866653216,-2.7032030813289785,2.278106011529146,-17.05594443675394,24.541563967381006,0.8876890013644791,2.3496375846708073,0.40862131763622145,37.53914392650817
-15.185552636472435,-5.666459022460014,-3.5535408675701383,-5.907855179674746,-64.71319307618106,-1.7994480955273122,-38.968933841067965,-3.358696321045978,-2.139050582236216,15.148993574829728,-18.20404275122416,-1.9014674386867985,-0.2605983935699445,2.256477674724548,1.1315280883047167,-21.448131765635456,22.92521142800935,5.851128940501687,5.036186823941916,3.2425679913847167,34.13063369538408
-14.424587835135588,-6.80598190443989,-2.1936149789394968,-7.0267892199036925,-66.51698731354769,-3.507210872043288,-37.42022626749514,2.0889313514892183,-4.2076582766554305,15.347127825189137,-16.04621946229926,-1.8391541567032594,2.4368129282271838,6.540095624023658,-0.195130646920185,-22.24564569128114,23.613642691589284,6.389136912200559,5.9305118038139835,4.162138723391771,29.782685197184716
-13.920673490461311,-6.91291697848583,0.382582699981147,-6.324364748222872,-66.65518617561241,-4.6665429076731675,-36.83966386207112,11.510432124159134,-5.8532125094985,16.845384187304784,-15.095223371828283,-3.147038364038136,4.768207852409507,6.957618630563365,-0.6577067965460213,-19.556585746639055,24.59352804739526,4.443218704152817,3.7263056783258723,2.4494279607908633,26.583634600127457
-13.860529794726904,-5.722892926953618,3.8824282161244024,-4.4340899347858125,-64.26024415386289,-4.2480001137950545,-37.446457090344175,17.39654822338624,-6.15161348457028,19.138650432936366,-15.486768234472354,-4.527253792379213,5.869682279941903,3.0397192564422184,-0.17290208166015053,-15.72796693202789,23.412665916677064,3.7586692252938283,-0.46383184309012737,-0.37557315117164514,25.61463743966204
-14.403436974723641,-3.249658086544573,6.303475383370791,-2.116894938962437,-60.615825157387455,-2.0352909098615104,-38.96776689242723,14.463940358575645,-4.945249543899201,20.692050250894994,-16.42594616392413,-4.435513856146825,5.412965960562554,-2.4834406494129913,0.36395345243719657,-13.280542732582058,19.380733062466902,6.091118882451407,-3.9143790026484737,-2.1328436919662437,25.913501046840935
-15.417345976853515,-0.033262674346097754,5.698382068006901,0.09893425745131462,-57.99874186471864,1.2938157009819413,-40.651977816050895,4.166888663477495,-3.181487876060971,20.178047446837553,-17.09356746154419,-2.254020318357234,3.5578274938687287,-5.601426776018731,-0.06875884767095891,-13.148858909100804,14.159731872358272,9.357863170026064,-4.415265015366354,-1.9874839573807137,25.347013743904753
-16.39448030492362,2.8930671364181517,2.1670303164435323,1.7041136737649691,-57.69419263226484,4.516274440016886,-41.546795554704,-6.3001036485367745,-2.2239425872999576,17.730061315522963,-17.176522478897915,1.0442811692772516,0.9818640923740412,-4.1036153120905805,-1.5494576511699976,-14.510285732631448,10.309215082922545,9.502547744095049,-1.9380868062228642,-0.9538683567423154,22.65952386096392
-16.70817477345467,4.644374541609121,-1.954427186399455,2.0353484504829362,-59.05709861639175,6.568733938360278,-41.10911702917283,-9.722454375014742,-2.65996740600705,15.199792281920379,-16.786025004282926,3.381135833124094,-0.9940781891145409,0.7182537568801868,-2.899368648159188,-15.935262484021562,9.16472725781162,4.5342176436487645,1.5237577079879179,-0.6227157061380577,18.824087276423782
-16.10350132974041,5.194908695590057,-4.0214271836475195,0.6875794525691166,-60.487775587413076,7.209260863785836,-39.701650522159106,-4.575598409692235,-3.7584302205764257,15.011415767599349,-16.21019649818257,3.0779852807304957,-0.894889081235136,5.165725988446341,-2.5013429461161847,-16.580255177534177,9.974601866580564,-3.136930457743869,3.6373386769367144,-1.5053306088364895,16.315557370986582
-15.044844071120348,5.389876308240069,-3.2952842963573556,-1.7641552566855092,-61.12586366731333,7.137480367980256,-38.40233302706423,4.006239691273333,-4.131758053872628,18.38175713249326,-15.828798786089308,0.2892031045358481,1.6926448685828852,6.230749287142355,0.21936057328075398,-16.46378759813426,10.817771306115025,-8.532033732083395,3.4618946118081966,-2.629195726945394,16.72502849374238
-14.521580006438725,6.1029966929521215,-1.4960641028298323,-3.6629805402207323,-61.46664538742983,7.329577213681439,-38.17757729120884,8.756728413945158,-3.0023934179218967,24.277355174089287,-16.04366142671477,-2.8473007964625667,5.2320643116600385,4.046807133834949,3.843757705665705,-15.953248437227506,10.328063420104016,-8.541986932313426,1.8219182483951508,-2.6246293171351085,18.97325886790592
-15.35490725494239,7.318643748478116,-1.0761218776411843,-3.383683861741952,-62.313676617528955,8.20679260943173,-39.06581650339944,6.199518633864802,-0.9528821673431671,30.005634425966896,-16.989641822195317,-3.6322402401349874,6.795015735031059,1.5322307860976871,5.668699776194631,-15.364142670837644,8.615390816884005,-4.839247193442676,0.2782118127411999,-1.083355659872638,19.988239049719972
-17.502534219832494,8.18289193378859,-2.9830312550486218,-0.794724964359613,-63.31537978591845,9.361209186181185,-40.22569495881416,-1.042511378549507,0.5951752038138569,33.10713657980045,-18.24596424110939,-0.7095300820315762,4.174989125865791,1.6281921049706116,3.815426709433607,-15.016842982533113,6.709058456471858,-2.3179598775642636,-0.20344870280917782,1.1631760641382347,17.437335298331078
-19.85198386670645,7.926721240521389,-5.991033066979639,2.2640723997050998,-62.810352579482874,10.061697010740282,-40.83116709150263,-7.199141416920858,0.6155170671812886,33.08908256226497,-18.922587771391786,4.963853105400745,-2.141096755216709,4.569065062337524,-0.9017387941107977,-15.380328298810129,5.335357822980754,-4.557920898344458,0.25604856163248213,2.924972512970154,12.11727357142502
-20.89529513312222,6.775641431733369,-8.018150674320093,3.266361034778948,-59.37405836258098,10.067055151165583,-40.93180611176837,-8.610308927507356,-0.6973331702572843,31.700162176995555,-18.24546216936192,10.79088625903731,-9.106825743451745,7.673467713080912,-5.103005723355657,-16.824502829491152,4.296043886577461,-10.563954179080111,0.9295795690978674,3.6882204291181337,7.527999488113313
-19.86075575798588,5.698646285756543,-8.055938185957096,1.1299929875790262,-53.62977963379379,9.919350288738244,-41.409545754719844,-6.381866410651292,-2.2534100014027376,31.505351716419028,-16.233015368034486,14.175688191502651,-13.316296452225703,7.799032996727035,-5.249890357512865,-19.033460997145482,3.0480992250291346,-15.881215799307608,1.2450470878389672,3.7650235111358272,6.789338233233945
-17.422269927887207,5.165282539418892,-6.911378405079242,-2.7041353188211987,-48.38114785936074,10.380877073979129,-42.94744430894899,-4.382872532317215,-3.0738240576122378,33.84250099157794,-13.785879662231716,13.895968027491175,-13.51807311095861,4.193869721769995,-0.5463712746503997,-20.83518439310094,1.6581923703056223,-16.73245236963395,1.0021356466843088,3.6357207854801854,9.629294873410597
-15.23915427350838,4.41369735952645,-6.105369613899047,-5.317240504246328,-46.692370747142675,11.64308453740238,-45.07877852233437,-4.8933905275683784,-2.980633550905285,37.789653068723595,-12.090396460116356,10.398289330498477,-11.137141853783778,-0.7618566003724878,6.133981677747034,-20.94101854006654,0.9404091775668766,-13.149302306533123,0.11397391688606362,3.3340783366697884,12.349165123821336
-14.582058674772966,2.298495773754131,-6.197031879540956,-4.6827342944891495,-49.3924913802762,13.171052130929077,-46.4488062662397,-6.352082730650205,-2.3736387467520155,40.99148953379949,-11.788512234034252,5.212857861841121,-8.49873627479689,-3.5505402731358404,10.300640223909003,-19.020588072660527,1.5103793619260575,-8.201850758930162,-1.4868295460709482,2.5500680918709144,10.999644984976086
-15.311625340287232,-1.0104425894244935,-6.062521722687997,-1.2906810074723638,-54.26392090920937,14.278242746132165,-46.134521979782605,-5.328575156003776,-1.51244899588617,41.64727705996829,-12.699254783363845,0.2220709231331437,-6.4836968350971995,-2.360016069102672,9.323004218245966,-16.162034482661195,2.6770236970930625,-4.679258572403402,-3.496668818119347,1.2614857838220581,4.943826422124797
-16.084204403817807,-3.4119445499432444,-3.9733990681922817,2.3884034541709482,-57.68071293529634,14.929750833754685,-44.72165558149823,-0.3975565740693152,-0.21727763627987695,40.06266076706437,-14.218206475887083,-2.864780378628595,-4.040525029958179,1.6574199593752652,4.40812295526521,-14.109039670820161,2.466258507308584,-2.8361352174623486,-4.911148828692018,0.03256352236103677,-2.536222768305734
-15.59444335465135,-2.5300550141357467,0.6440009117887473,4.081979309829535,-57.30154007657569,15.859244348967707,-43.91970630415049,6.045384938904641,1.6988817956690965,38.410139531980754,-15.872714861011548,-2.915430566657382,0.2707204280962259,5.551939482864121,-0.6400775479122083,-13.932847467141524,-0.9384422505268328,-1.294249809595096,-4.398881594387252,-0.4684025669855898,-7.10087624226027
-13.840533950035407,1.8165239367546597,6.2487325373015175,3.507120791983037,-53.584519929896885,17.73095802004629,-44.943637612738954,9.866308673639846,3.7838124102620645,38.88691134765301,-17.451678820978113,0.09959160679284818,6.184124109510249,6.898615236762714,-2.6847101953072223,-15.349350188667817,-7.479098595279197,0.3733330422222396,-1.4321806811776852,-0.21393484073306945,-6.950040492624282
-12.202650207437786,6.878954004672223,10.000014656264408,2.2236872984800136,-49.02387648692436,20.1848431842501,-47.14741047563699,9.185855926982288,4.932624912423483,41.82765343695793,-18.68077123715958,4.737099768688643,11.307771653316236,5.357680867086099,-1.6193766646895,-17.179345930867367,-14.91315104633192,0.7241129173249545,2.8183771069804187,-0.008691047905476035,-3.9320760782454016
-12.18331091808141,9.047420074048121,9.709136773312839,1.8377264806946645,-45.94136296909284,21.85086062708262,-48.39350916421572,6.154864830285861,4.250690826276989,45.46473216485855,-19.070390441570684,8.469077194429483,12.813154702355952,2.3615646395240435,0.16711964677197755,-18.365085873970507,-20.324395948648753,-1.5316198595397656,5.807253768463925,-0.7928041955341245,-1.4779755085906103
-14.077318821488564,6.988223197336732,5.589221007780634,2.3690320617125433,-44.845496269923245,21.575246247275736,-46.93059118749815,4.843392215642588,1.987442371983005,47.566747976165466,-18.279907545330094,8.938301013101594,9.588100906502335,-0.3372661779801174,0.48161760412139,-18.563200355460232,-22.282629992185534,-5.007925894325285,5.313649568278921,-2.6128785357857547,-1.6242826427033776
-16.645491542662768,2.863433242362693,0.4046917148759097,2.397554041893546,-44.597804179430966,19.863795408749453,-43.12996639256415,7.3450296506641575,-0.4102310511956422,47.44145637333892,-16.61727176701524,5.428151467757918,3.0477827041647334,-1.8187112989406438,-0.5256554029066949,-17.890388063566466,-21.831583045084557,-5.886989093192622,1.244361061903967,-4.285901109362468,-3.866996978110194
-18.071361219370846,0.18443019047697495,-2.183133921456138,0.7086628902128012,-43.93150186162653,19.02471353398552,-39.45520489606071,11.695801258402724,-1.3646183609317517,46.47539155784951,-14.98492777401457,-0.5608042928053416,-3.881486165505639,-2.090995589994752,-0.7966277201501317,-16.467851322941634,-21.525301927881074,-1.4280371710461361,-4.026093200869594,-4.254320154218714,-6.538415473128978
-17.355853768367428,0.41850074020584604,-0.08669114489508889,-2.199255705653226,-42.78435227693916,21.624220521713916,-38.62954514478685,13.507753196222872,-0.43649162509562567,46.68810421702425,-14.098791872334926,-6.186704668891256,-8.42055656635825,-1.5460131437466136,1.2110223097661454,-14.498029001566854,-23.327414229070534,6.694207304456006,-7.278065351727754,-1.9897773317574083,-8.862058106746261
-14.927487047509965,1.7393086501314619,5.577094271922816,-4.318157962119025,-42.16940469603766,28.269076516136654,-41.55445131964019,9.727196894301995,1.3002986946859703,48.7101059721761,-13.723764604063891,-9.008271417965595,-8.963652595711014,-0.5415721285844588,4.656365355656523,-12.715679138612792,-27.27034209583138,12.880334728419268,-6.7851843535082565,1.259374271928585,-11.376899081469901
-12.18723859844226,1.1357623025209254,10.956929179636463,-3.9076275802498484,-42.88631566659244,36.62272442652572,-46.69570938578566,1.1475299431569497,2.1404299278482517,51.11390237601231,-12.83649734702124,-8.353432519881915,-5.254789692285283,0.5399433602746789,6.888194439439124,-12.27980690950718,-31.910891001410416,12.185475713613043,-3.4753618444833854,3.2011176169569913,-14.666286755769782
-10.465398641411193,-2.294812547021743,11.99746029617942,-1.1739401931116549,-44.413629102228626,42.82896583604497,-51.256876300614366,-8.279326988194383,1.0936066312902595,51.8041630500446,-10.706876296671377,-5.46196443861543,1.5981497534291242,1.138020169266433,5.938902058283779,-13.687000115714625,-35.782632694810516,4.914723844084782,-0.012882946250469818,2.2182139712282014,-18.137920545226603
-10.340169481129731,-6.266291245502842,7.3686997162172085,1.7296533317537892,-45.16118735287308,44.23694820978625,-53.0020158258835,-14.267545988083153,-1.4197050843670738,50.11618998899218,-7.901869650921329,-2.4679686471540867,9.089005222355736,0.7890448517844253,2.461288515338871,-15.666921844605076,-38.402145683550984,-3.3248378274075163,1.404247684718995,-1.3027482732184776,-20.329538254600756
-11.552014004908266,-7.622692008408726,-0.341416429966765,2.457101416825121,-43.904333267166606,41.29347033576801,-51.24829719034486,-14.695664051538538,-4.031382286096963,47.57082173842969,-5.941776557006876,-1.0544066236984473,13.836216108276268,-0.34285144048540017,-0.8099974863721819,-15.641025038474574,-40.06968501983384,-6.252492471397925,0.5974461026007989,-5.1796891817654895,-20.455569311615488
-13.295317669130075,-5.6432530777642995,-6.325187623119531,0.4507733033739516,-41.05921790847045,37.068644233396626,-46.70917937002361,-10.383217639693914,-5.48773484662628,46.48811510091053,-5.849287994778799,-1.6879641815561928,13.109751961284406,-1.281215556772822,-1.4671475071336946,-11.842741396985918,-41.09982415378654,-2.073235675609088,-0.8227971472744562,-7.0938983012934305,-19.36245401627132
-14.561196550427768,-2.8862523100132162,-6.991155837958976,-2.6695355211771075,-38.49567094807883,34.88424974965404,-40.74560988854053,-4.152321762162121,-5.387111015856889,47.79799928002627,-6.9492470418223995,-3.695949447294339,6.781306272605889,-0.8559755021253688,0.5683171090950863,-5.383301265019198,-41.6044583367087,5.3664111170907836,-1.143312733031479,-6.342401094798285,-18.845622811410248
-14.430350454389396,-2.669572259754773,-2.5818803070664815,-4.548445273838881,-37.94060302382743,36.09789351774029,-34.76072679409048,0.7658270063475205,-4.202865802401352,50.19293586380607,-7.305362355445899,-5.836741432570714,-1.9758984733037335,1.2495517114005552,3.2083126343137316,0.008475813830624901,-42.03358403402304,10.301727313887678,-0.07912213280898506,-4.239209077671471,-20.060760721819232
-12.3921378550469,-5.671316955423741,3.0737805406113847,-3.995465647811256,-39.36406186196436,39.83449560028383,-29.973868109152296,2.175420940991002,-2.7596263528139344,51.36532211332513,-5.51265348750626,-6.988814918578572,-8.407283262748784,3.9379120640208494,4.180405533157121,0.894150462850698,-43.49954671783344,9.867561646287164,1.170171672448582,-2.829037020660784,-22.585349041130307
-8.66982345801631,-9.119315689196966,5.598654640216986,-1.8025170612304482,-40.88859947699415,44.353433678678755,-27.183195770944845,-0.04924332388301611,-1.7292582657242621,50.17163099985847,-2.218520649627724,-6.697888548615345,-9.386269651988936,5.3126162354837225,2.806246400774268,-2.7831612948248443,-47.01140233173171,5.619862557217894,1.2614169978395733,-3.112432790442297,-25.03654872901673
-4.3573517988417745,-9.412927750947427,3.26725609546434,0.15871847774072673,-40.437321286780026,48.52110652292316,-26.3668806302216,-3.765388815961782,-1.4767036540429694,47.58553134134,0.2603562850618717,-5.474117232678175,-5.659397990427195,4.1326727275817365,0.0864881841774583,-7.479857021781277,-52.102322368886206,1.0013541395310002,0.10387597208501731,-4.337013570289706,-26.47288826434014
-0.9750088079634622,-5.609424380824269,-2.1816354784442518,0.5603354819287134,-37.71846341039854,52.05616764265959,-26.477558350785383,-5.625237568749305,-2.075580282199547,45.545160568461306,-0.010689105815836042,-4.639347147349643,-1.1841779270735069,0.8947193163812344,-2.573400895578242,-9.132768572823835,-56.394348950105936,-2.2450219326199754,-0.946452542110146,-4.887679196372173,-27.164606146123134
0.4239229308536254,-0.37651833526414924,-7.4756622764318905,-0.48460814052620305,-34.734075034872276,54.740152869391274,-25.84817359946675,-3.1849723163457604,-3.3176547587386995,45.00919164613923,-2.6953942350285818,-5.5822139115348595,0.028764611440155186,-2.412081479484489,-4.479755318309947,-6.769076587143383,-57.08397251307768,-5.086674780238816,-0.29346488747486976,-3.780792244986807,-28.12389589948739
-0.018179721319090625,2.50036330751589,-10.536063153439914,-1.8301509274959349,-34.187359128552416,55.839653432178395,-23.151904181020804,3.146687894682427,-4.723894014492146,45.18374014489787,-5.297179171743104,-8.651522397596231,-3.1220906199912104,-3.8129486451530576,-5.60558208810394,-3.0771644754099308,-53.460280422131454,-9.06945183523552,2.353653667482442,-1.4236401128120706,-30.210325723992046
-1.0914079609538216,1.6419285159013808,-11.480347652560145,-2.4174946525462047,-37.06088691966198,54.58918566970498,-18.311101932931482,9.989804825911019,-5.637850621890216,44.64959131531254,-5.204125269606551,-12.486225165948467,-8.30026417601983,-2.9366820769097024,-5.867854864853497,-1.4094754354319043,-48.041267346413505,-13.768400839921503,5.468820081350431,0.9228734882111929,-33.65264166510522
-1.4259350091101042,-0.779131252048789,-11.25263570394802,-1.999533653316302,-41.52015532945339,51.192169730423316,-12.560125090551681,13.20437787773577,-5.449604245945459,43.11059923952152,-1.82825176232526,-14.485978120810499,-11.800761911243118,-1.2850588449363127,-4.834589822947086,-2.228120812494673,-44.941159636516794,-16.686374900829655,6.821594077360512,2.251225119007916,-38.089967215497694
-0.5311980938054526,-1.2081441001314475,-9.772292392755567,-1.0314702386519974,-44.215711123172134,47.10842509408649,-7.64260594090501,10.924905009706501,-3.8819246901377102,41.91206853729871,3.015318787737159,-12.500089594103596,-11.181593916632721,-0.8964997899524767,-2.424156335719936,-2.711808982589152,-46.49474982525266,-15.495193170956153,5.20169081474809,2.417151206650662,-42.72533555881495
0.8257919418898894,1.907295960628491,-5.854649803170992,-0.06650895509741739,-42.937094250073756,44.22226531973411,-4.703191257613621,5.021824889509633,-1.2040694297871948,42.67800655340754,6.592753585645225,-6.591826080806049,-6.364595282189718,-2.5480512304317626,0.3727678675750621,0.015557211006168803,-51.09029442221671,-10.208950785645872,1.4503602607235027,1.8579775477468061,-46.37349818933502
1.2113474724793063,6.667032473034675,0.8833869806339507,0.6482763923085102,-38.34881660844705,43.61279269221255,-3.5880260551047645,-0.24306244406855065,1.743601589508663,45.462559089741184,7.141094156656163,0.5218446399658463,1.0529866015424627,-5.03391243693809,1.8320407053977525,5.407236497941778,-54.32194937736186,-3.1212792013924826,-2.141621121188291,1.05756498409467,-47.63633596519724
-0.33180849178941707,9.439524031942142,8.30157975843234,1.1259828054511245,-33.336201832420876,45.10024448527658,-3.0196005104507058,-1.2096437833107303,3.7686298032453296,48.42044402167693,4.793062468786728,5.128495236687346,8.950501229847557,-6.176876394719808,0.8675522054760889,9.476817953323632,-52.672425953353326,3.1320211432677345,-3.542767041400312,0.4027134045216232,-45.67818368082228
-3.4514110209824107,8.136546780868718,12.450160750657263,1.4188522668684889,-30.60545903076782,47.80567113692764,-1.4594837857988339,2.8443727676808304,3.7158562161028126,49.402502984259954,1.1414882836346893,5.192502859122833,15.194905414986941,-4.677622839992997,-1.8036419473435867,8.472496518810239,-46.46939343306004,7.237504958448711,-2.422665672481263,0.376073303588093,-41.11172764969558
-6.571737787333298,4.013299039133152,10.604045831679061,1.5719860025298644,-30.681626217851402,50.93909685589798,1.9569817683585011,9.669600474731581,1.048694631388384,47.97103886546112,-1.8067157715329891,1.9594622895770435,17.637752941941912,-1.2563263679112882,-4.110042085176094,2.6615415059748404,-39.5970499202987,9.041425315984297,-0.24502059853861136,1.4448584476406787,-36.05168191973877
-7.796361235867487,0.48281579505244654,4.024377940081467,1.7742133450100868,-31.9500060259712,53.95246170469978,6.916707577059619,15.856815419644363,-3.6526474488969263,45.82444616042646,-2.4531059502382178,-0.9793770558952113,14.63415681959282,1.9421247025429063,-4.45069572374298,-3.63524983426468,-36.29509297033388,8.448467681532096,1.0381011887277256,3.374522670334886,-32.92555728204841
-6.024255522633999,0.17689246781066448,-2.3471092339970676,2.2958675751938293,-32.46654953504512,56.18823261775655,12.123268364267776,18.882813318231022,-8.675269120164042,45.16752751060828,-0.13101132172363172,-0.5596659432591262,6.402312160353935,3.117530989514136,-3.177496460232954,-5.822186597049807,-37.8667111849889,5.107102559898056,0.602516557833424,4.764499631216916,-32.83773572219829
-1.5840045134742198,2.917020341050591,-3.4433581564043907,3.154837002630916,-31.730582763057384,56.80320720089453,16.07551121172863,18.047628009885017,-11.900448053860213,46.557386052876545,4.496231062176758,3.2910843467939066,-3.9646610398604087,2.1231852944372682,-2.2048169872734116,-2.894876961148646,-42.04319559854622,-0.5735113481044181,-0.7170536051947459,3.6826596790231165,-34.83305413339599
3.960222007944347,6.2592763900236505,1.924042743713628,3.800161779657435,-30.812426142977785,55.34890062271911,17.919228942002036,14.231430765531835,-12.04149640945775,48.29443065462843,9.386457788567679,7.68635175640798,-11.450778324241961,0.3346781960441393,-2.964036067478421,2.2359363885507397,-45.24504704146962,-6.468434684667694,-1.3227763606665153,-0.6768937541065352,-36.76293612882044
8.624185678276712,7.85360559063339,10.082441337555043,3.2564234320999423,-30.95929542263132,52.46835389111324,17.90842641742491,9.21344355698842,-9.448237068185897,47.97463696692337,11.961254929037565,9.332890267055253,-12.011799350517677,-0.7437195494197172,-4.728000960779335,5.95830404322841,-45.463193242511,-9.542894309951572,-0.3077688838775927,-6.709036733876889,-36.93644298285882
10.92150433681044,7.336966076233118,15.379494027584482,0.8806426707858561,-32.2055906944682,49.740696647544084,17.225784610662554,5.01601526866205,-5.83463182696953,44.73240616223821,10.69012444319358,7.349127331766762,-5.611972571831796,-0.6946619596179813,-5.078778287252178,7.223720919293503,-43.255495293961346,-8.15068454289465,1.7777756313723925,-10.98402001266085,-35.17843829411444
10.4625568818224,6.126913342653814,14.505827659482659,-2.835208793495214,-33.38441890610712,48.57075953784565,17.327757502189815,3.236799675094778,-3.0410164022298787,40.077616336825365,6.401525859947668,3.830531247087726,3.289532995952123,-0.18748324686474627,-2.2700573449985186,7.769710516760387,-40.53114646666777,-3.6418527576972526,3.5219626429134365,-10.619931550103878,-32.55160189189892
7.948647022596662,5.6168426105749525,8.79812409149112,-6.1775719990037175,-33.458302450038445,49.116294543306616,19.250812680971396,4.257287678456048,-1.8339576970378024,36.5640263008956,1.9947567363142422,1.8143356744953474,8.635592839622287,0.03235382339764459,2.7354308212745515,9.47678731468502,-38.69752235642281,0.6223775123237879,4.033573083118958,-5.628078158764621,-30.291987045766774
4.692872364895031,5.758460632650278,2.706144530061028,-7.222628590798578,-32.6451373754347,50.3628731871301,23.20246206452737,6.787735381272915,-1.6472471292016442,35.59567229993493,0.4441333052820937,2.543256556837499,7.17024723446126,0.012624449559075712,6.730321377366085,12.047783873671918,-37.96215714182022,2.1330828447742034,3.735986123236508,0.9124305581920189,-29.10420156114804
2.0160790876479826,5.460477794893716,0.003935446643521523,-5.279606563769639,-32.16980835249077,51.22176210134296,28.465148468778438,8.415636031458456,-1.350079143450622,36.37621014204545,2.644658378301166,4.580989661828772,0.9282691485960584,0.4241355980385193,7.006001440104913,13.42876284185528,-37.99968587661711,1.2116412073723701,3.837929678598885,5.120178326001573,-29.271580160094366
0.7861440967517943,4.171182759532802,0.987804131154923,-1.5789874877841013,-32.889529505818764,51.497468252258884,33.621128411366755,7.166673198815323,-0.2824994044493174,36.88064400758727,6.992067705291841,5.51633693018409,-4.372380161292494,1.5131851300722325,3.91640420325449,12.318773189206977,-38.83439173587731,0.2136673796269264,4.945745029831302,5.154481319300763,-30.931667051078364
1.3070927464960524,2.7947029963841294,2.743573457183139,1.5345477905419065,-34.208464296156784,51.78293695577359,37.086286287959304,3.010315589236879,1.3542888228593712,35.79001756019048,11.053901729471146,4.444774965633586,-3.836631166977038,2.444718173403738,0.7309721226058998,9.821086514039822,-40.77416995183191,0.8357694810794656,6.212359394757316,2.2828144966043284,-33.96509417104669
3.4048302221269773,2.73689485190301,1.9529021312513342,2.394330968794123,-34.445041859174864,52.50584734681015,37.91800067707189,-1.9898437666230295,2.9595372477102524,33.568876089400185,13.693887223976004,2.7620119062866237,2.6403914163926814,1.9309564344024763,0.7462994229312765,8.503747463003753,-43.59686928548946,2.3065317437124655,5.981930453606838,-0.5968310482309839,-37.56729455053754
6.533669385330494,4.014244886652066,-2.2053965203989936,1.3936141038665655,-32.39743629126916,53.29236801225795,36.54254615711373,-5.211170251822918,4.196266283850552,31.812096277462892,15.616910378584194,2.6015988594950397,10.1735205209436,-0.3794793487704591,4.204675206772517,9.871475217840452,-46.128773509434545,2.318653436659095,3.415190373260922,-1.503804715277805,-40.29472443159411
9.941680041811304,4.637147989905404,-7.431742399717891,0.6625483426938918,-28.614194887482277,53.3394272692266,34.74274181724883,-5.494206945096272,5.11218476102592,31.629339385703066,17.974713354159768,4.6050984173097,12.835778991895797,-3.1832250240359574,7.914588417487445,12.964713241418787,-46.9309496877973,-0.37007788768137395,-0.4453473945084938,-0.76705058684626,-40.85192029398386
12.849372743670742,2.359106014260824,-10.205913164839401,2.138161286719867,-25.101079453173675,52.42291297050598,34.58079739169225,-3.916501148585999,5.661747331522468,32.64349590996786,20.626319974239742,7.1577986631518655,8.516784502248028,-4.458336895805146,8.034371352391403,15.416063130349439,-45.47570023201845,-4.552769780048245,-3.271093335227842,-0.23765156493733897,-39.1179357116185
14.751490862003763,-2.795209033405238,-8.507489596913846,5.700364451746437,-23.708356565730902,51.25623013715783,36.8743016520051,-2.646676054737375,5.308709276573429,33.42889390239749,22.062419536683713,7.913161374520316,0.6429923027508249,-3.3369727794654804,3.595965907231944,15.740664353213417,-42.620028930330776,-7.709232670935534,-3.3421972405941336,-1.2950338011948106,-36.3788731712589
15.688176460683952,-7.803778363132944,-3.2434066291233776,9.074667402287648,-24.66116803918404,50.76668661065341,40.45935560348469,-3.03356385843664,3.3212201908233534,32.81514791427535,21.09020232388667,5.997489771227141,-4.592040146587142,-1.1443386599395011,-2.4155869188643906,14.510479452378721,-39.83760527154858,-8.37104727227015,-1.0517267646058115,-3.552553271014561,-34.321884418138
16.189698379509807,-8.909754051404288,2.5013019788487707,9.739613299203889,-26.487370862133034,51.06022770025733,42.97519446569512,-4.544516885505758,-0.3838584027269589,30.78512826623164,18.524007299435837,2.727907030594989,-3.2695540021254876,-0.3218041569932393,-5.439960582305314,13.523053384026692,-37.979455930501516,-7.186252885558165,1.3919640037289307,-5.313833660935222,-33.72252873658956
16.906596263848,-5.025477092150664,5.767978265453355,7.290082562203656,-27.369531344087022,51.21685641210176,42.75397939492633,-5.427653427351638,-4.7428856475003265,28.250820094669823,16.86927162955693,0.22057467683508936,3.191923880321707,-2.12327503302725,-3.1265708547137265,14.052432292262555,-36.814700041719206,-5.763503504121388,1.8902648842753895,-5.157760754103977,-33.99701811448775
18.041905771660144,0.982895926884476,5.693680209949187,3.957635136006698,-26.605016678313433,50.195502263803505,40.170810338031565,-4.446623210269335,-7.923923225399356,26.135714813714486,18.11397095238674,-0.6937887421048264,9.391228214035037,-5.234441842275503,2.692936369777546,16.048804277816295,-35.80048441776361,-4.870985531447266,0.2224951560385917,-3.1980089032141756,-33.993898965785846
19.14633802262333,4.543908538489087,3.842173413636057,2.6989587801579282,-24.892572142527804,47.992608217365664,37.29809894701229,-1.9525976138431425,-8.431583554701518,24.744110695714863,21.771251334367754,-1.150658795822045,10.436587972323968,-6.798327774991694,7.492118265616893,18.746790125240015,-35.0452139754412,-4.067420849053361,-1.946015678088006,-0.9542459546023735,-33.14935382919353
19.60062792776795,3.2248161418571204,2.6738522132870806,4.477772361854554,-23.370491333181,45.710680559095564,36.13062159450369,0.5810926745641118,-6.094191582973389,23.873005657740862,25.131409599998122,-3.0415520407706884,5.59935811893246,-5.096481856585314,7.610870038593121,21.53279481862598,-35.271778293976055,-3.023266790411707,-2.7748435883455573,-0.09817423177467055,-31.884911292793838
19.387472310297692,-1.4405439175988055,3.3825492759970848,7.253924293416166,-22.50971659564204,44.53706971109705,37.01793656435962,2.0252219016521673,-2.168791624188493,23.307806018387275,25.553660125095206,-6.995531117490706,-1.799317389340211,-1.3165489035095816,2.983940687919662,24.082653146421443,-36.70470594366515,-2.4263486999333486,-1.9949199205819317,-1.1954486683959646,-30.997975716921186
19.410128008855153,-5.7561099561804205,4.983962104335454,7.775007545679064,-21.90886594023285,44.621859252824734,38.678345747187784,2.6156540928291787,1.4534703268936167,23.055123400512073,22.718591722374804,-11.52872025281381,-7.561292168086688,1.3954550427518246,-3.0738590272202093,25.941432780641044,-38.14937137801674,-3.0816227356429513,-0.9684893002041005,-3.4523742140121327,-30.762141379540175
20.872799716155786,-7.4102070665404005,5.293980902728028,4.6171262108863615,-21.091447273287876,44.98411580570392,39.665935003912296,3.5228787354007256,3.324780286775479,23.0589274042293,18.683606574516357,-14.093845081036335,-9.839094325855003,0.8112173722129438,-6.549394640406774,26.286890117595917,-37.47103831947185,-4.23902646884296,-1.1132803404535647,-5.433667249128674,-30.677196211438552
24.043137248941537,-7.244843332765326,3.095846600361515,-0.40484716584812697,-20.308139419807013,44.52155395330132,39.745217551153615,5.506309631319723,3.069356608774646,22.89227086871785,15.92426312151936,-13.033137614463936,-9.601677729966223,-2.2922595486725506,-5.524476082210104,24.577657331338273,-33.346867125820445,-3.495801344397546,-2.3448031021064453,-6.071441948137027,-30.072556224711292
27.475799321271197,-7.618969046589763,-0.3000272068190579,-3.838620558290227,-20.376142999161694,43.07421087777736,39.82521083504723,7.845915941232056,1.3318685123814904,21.942153674961357,15.21467791854532,-8.822332067574925,-8.569497975886136,-4.878299291001613,-1.106733052047448,21.385858511736927,-26.720662860503126,0.8254607343758176,-3.1401833828113475,-5.181890275811401,-28.875202512271255
28.657284137874413,-9.357938106140367,-1.6664155854822527,-3.711525240352956,-21.706446778454712,41.44627344667653,40.73102767587866,8.633241412449708,-0.7072383677710206,19.940235431940227,15.331126685464987,-3.65372051018013,-7.281115903073642,-4.547406495547963,3.8301477354357543,18.35966761329904,-20.468026334820127,7.074750929151272,-2.198354259758406,-3.260995328684893,-27.638764286422205
25.834759451239925,-10.589023018744202,1.5059370797788123,-1.3147126330941439,-23.55732126555823,40.43615513230769,42.1866953680911,6.3087240655278425,-1.911171510124205,17.30220435496005,14.713111729600499,0.10174636702445072,-5.192161191686501,-1.7274975736941771,6.771851441706737,17.188496712902495,-17.320150667932094,10.717162945019638,0.08847788990883654,-0.9924027092104877,-26.888263370074533
19.72965485784485,-8.782623987831904,8.450564357792711,0.08475944228796495,-24.39083270955379,39.86921564661945,43.18025060720973,1.0335630294523162,-1.6863709506113849,14.847657840874234,13.137559565026928,1.3164733600295166,-2.2627302781411385,0.9737790698518229,6.952177252321186,18.319608549483615,-17.81315785138108,8.194300380337046,1.9522069408182054,1.0650791436800722,-26.52721221702999
13.552948727073357,-3.7751566409767388,15.046535514983754,-1.6613281038849834,-23.143852614970477,38.69493603580472,43.2322480396852,-5.162745259789927,-0.22065818046611163,13.155776957713211,11.939352779043018,0.4376457762742354,0.1667502985001743,1.4133811329652763,5.284397506561893,20.627231106457906,-20.088858213834847,0.6482889742738975,2.0185232110930817,2.4532999020885793,-26.002884108464944
11.015796914566316,1.5056568104720556,16.62806237597604,-5.574687861085664,-20.20400856342893,36.08077138447686,43.12025834824926,-9.601931441838746,1.5928043927741085,12.215840240907145,12.604820064605534,-1.1939690962865308,0.45726920533923987,-0.10383428800061445,3.254003255362149,22.245001680805334,-21.619239270373416,-6.334466732377808,0.7555886953484534,2.720149686653838,-25.000067132982675
13.637887999783786,3.518068570766303,11.64238223725474,-8.374691558086939,-17.13756764301914,32.45599050775151,44.200760804961,-10.633797160437041,2.651443331928078,11.656907551762602,15.20381117398398,-2.349160485235772,-1.4466642489783976,-1.4837793980065528,1.822822981852372,21.879660828937837,-21.201233412702297,-7.364306145304068,0.05331584683991575,1.639081165895298,-23.803816358746
19.439921396187295,1.4269785647356286,3.1164725415151358,-7.33062175470357,-15.34906351706325,29.359807067486855,46.877195552238895,-8.457215911915586,2.4230678418620473,11.183886294215514,18.17211312342049,-2.43590038611101,-3.567790384137246,-1.2752113986150757,1.0339671539934536,19.549518209812458,-19.443863645941168,-1.9871269198109174,1.3196161648940714,-0.4141920679546831,-22.911928778766345
24.24887380250997,-2.1750191763872366,-3.5655070912599847,-2.518320061849585,-14.967512903003062,28.126984005692677,49.82979262072566,-4.768418829559786,1.410750494433748,10.69651371868505,19.645959727174038,-1.4784956249962629,-3.6768999128037874,-0.15954638366264873,0.3973679901786562,16.438386099404074,-17.51078960720333,4.888148750123425,3.9856375885244715,-2.383297113340945,-22.257370682628213
24.720905156089366,-3.8340654609166442,-4.8036985781349175,3.3603934937521527,-14.981229514416803,28.69230553858721,50.92222122189481,-1.6049125889475624,0.8334879878785362,10.00134059974432,19.00602654422967,0.13406933410155353,-1.4470985865777894,0.09346668301218797,-0.4737252023794034,14.11268016345272,-15.542139784974655,7.400932590338261,6.007155197816319,-3.0805563410885832,-20.991419134739015
20.738905032542288,-2.4898180949564117,-1.4098130289517155,7.214813527666243,-14.441991591015686,29.605863568131642,49.02221705785261,-0.31901849374966185,1.5828315628421317,8.599478746133073,17.38092694838292,1.8213218664112625,1.2233026988934115,-1.0741108489972517,-1.5197934234134673,13.713473114788215,-12.449111978710706,3.6315976196052056,5.779372960883727,-2.069692802498483,-18.322857304340097
15.311515986415838,-0.2042493050504135,2.5723784180893525,7.727040529512586,-13.506888673505799,29.298801602878683,45.103324658158996,-1.2682040657726916,3.281331295980989,5.996451868509773,16.602618744177427,2.8188019015298393,2.1311459158850274,-2.104405951660274,-2.323687462568949,15.410066994819637,-7.20972313249975,-3.378768544573785,3.535911760866159,-0.11394267691395271,-14.591467543310099
12.050766095782583,0.26789963625890856,3.630726294230423,5.813694068315845,-13.240239749623314,27.446701679700695,41.58354052231128,-4.14409874256499,4.3685281055681235,2.3621357736652655,17.597946256562324,2.3604601454467624,0.9063998963665201,-0.9652348568086366,-2.5019104791754696,18.16515152653918,-0.30545073373558296,-8.947778904406295,0.8970081330790678,1.2835620092073061,-11.377064385681908
12.477109788534008,-1.5236830068075793,1.6560358575776,3.407247009949611,-14.407513028294787,25.06056271048367,40.552318606446114,-8.339336695515593,3.284215736491987,-1.2808949404860055,19.46929771684674,0.20183220406903501,-0.8864369168234931,2.3904092191199955,-1.9644325317593063,20.08910142492873,6.277674117223693,-10.740867132074875,-0.7910905323190667,1.0252600902393971,-10.351491140868319
