Fp1,Fp2,F7,F3,Fz,F4,F8,FC5,FC1,FC2,FC6
6.861096508550932,6.375467292206519,-4.566296330540355,-2.830838087839979,-1.1754073576533166,-4.48410629504838,9.633013014515011,-14.18972913327551,-13.303239190246376,-2.3210506908084323,0.7022822837732003
6.764777259094971,6.449558616402896,-4.107929248174758,5.329279830408979,0.029081508530514055,0.665403740438737,4.640586914275767,-16.510708160058183,-4.5214864333613765,-1.4222384070512972,1.0362551922525447
5.884614930559644,7.139900077169191,-2.4633091802710583,10.065892821405676,0.6487182522442095,4.531621013349555,2.1346879846977096,-13.902884260801127,1.1894555358996644,0.04113576919280815,-0.9470525526262579
3.8640895353623006,8.547624620712263,1.0421421642926694,10.929476815218486,0.4448044160626345,6.368776566367396,2.826196689501338,-5.527749776189336,2.883734618424606,1.867871382021497,-5.410320176280509
1.308255381531348,10.362308726617112,5.956839723615614,10.555746996697529,-0.3221451301694215,6.44035229230729,5.373122241234292,4.598516566666065,1.986892847080548,3.1046317437064648,-10.057775816664108
-0.028118452897822,12.275803951393407,10.498990839443143,11.950235377427646,-1.093597428371758,6.015467628573906,7.672870658146324,10.790221460671876,0.6336117896617366,2.867458163995606,-11.911623113532489
1.8148073316211506,14.2390376126219,12.394923191732921,15.711945510791836,-1.4115566505251502,6.542042715995346,8.42363844248228,10.122311373626992,-0.18463738255218365,1.1539372492556135,-9.546205527439874
7.18333952844511,16.321451189367348,10.613727025291706,19.907189825312336,-1.3155175233613705,8.337547758977664,7.720660668479754,4.567677604394735,-0.9244870277286101,-1.142621656770652,-3.973667228703467
13.76991990520456,18.39422820772061,6.671339497797058,22.44752762851364,-1.3124308991508677,10.025428728221577,6.438043879472234,-0.7663916852125761,-2.2841659364876654,-2.904371687185269,2.3603619743831583
17.761788541147677,20.183467800312663,3.740166272965868,23.36297001624517,-1.8630354955237467,9.583348316601043,5.287272822119483,-1.7657424224949012,-3.9656794793933714,-3.531085629760981,7.363050432507435
16.656219382594877,21.672734779032137,3.9337373380498453,24.599771549377664,-2.744412229234129,6.3875572539647045,4.506438819762011,1.747979328777973,-4.867752388135141,-3.1325407655422843,10.335541273113254
11.518878484637831,23.36781191077166,6.0370411611981645,27.797344633682542,-2.9848659533740056,2.2748033203510207,4.196923588338684,6.486473741495736,-4.367276460778639,-2.1349176947910213,11.785424229774124
6.4371767193784,25.887693444869484,6.148612315805836,32.5403598497447,-1.6695605727810263,0.4123934979638548,4.564838549434833,8.855106825127155,-3.196894542420454,-0.8569571647304703,12.483599607637455
5.385672850565366,29.166741966545903,1.088769245144709,36.91838031541623,0.987835928417022,2.6572058127000826,5.632052441417395,7.967485207821392,-2.818073289892818,0.4848587382580747,12.861272186760706
9.148479858434586,32.136129330778886,-8.24072068722829,39.66153835680392,3.356747810717777,7.756718107397338,6.792644581968691,5.767204143401131,-3.814841129633505,1.510117511629038,13.101776986735379
14.929171575032504,33.41601868010654,-16.842653826984886,41.54128838511042,3.4486331088599465,12.27644238960965,6.9807655651889355,4.661806332777651,-5.037591384604319,1.6860687004879154,13.388696690803792
18.871336366090606,32.53917704284151,-19.475253463276086,44.565138548185416,0.615997359833491,13.493294517442502,5.586261580689561,5.091041103274367,-4.549204106039499,0.7208754467512031,13.83308656990346
19.124224055695507,30.473099769164538,-15.128119553885963,49.81750313070942,-3.5644582629089907,11.663581300800091,3.3203841347955834,5.324311408404649,-1.562099318274999,-1.0116143727187907,14.281757830566388
16.82329254544429,28.82162717098152,-8.14811782900404,56.194558532170895,-6.229619291072966,9.582271126645313,1.883174606859885,3.4912462240892825,2.516364037775005,-2.52270578108648,14.328803769823516
14.487426935599993,28.380168588552895,-4.717843543365224,61.34523492214785,-5.355692320496308,10.002944698927763,2.563764323709254,-0.3203431655985751,5.006749119449932,-2.8528801694764647,13.815184087685534
13.800889453055786,28.44588990882492,-7.619456863638596,63.854483437806245,-1.3199827762970606,13.322546235328991,4.970384771606497,-3.9488180115941054,4.167482776530965,-1.761323717429367,13.34324298911063
14.773902944476873,27.625761028377035,-13.842036644079972,64.51026141406872,3.46254784092994,17.60464897239625,7.111709436739655,-5.041498514499432,0.672405525098271,0.09739066760851944,13.96455095222777
16.55885781457853,25.319920427698577,-17.17292014694928,65.51605605535443,6.548187381513896,20.600212645249425,6.883228513086708,-2.9551099505735645,-2.902956091510202,1.6736976268639063,16.19370425560895
18.60856536156757,22.472554002822548,-13.58208634190221,68.4735642374524,7.311807087838792,21.58654873584327,3.6904179159097,0.9573006853648278,-4.064178114996798,2.324896159046201,19.14673000081193
20.785319395709497,20.82682307147263,-4.7287219354627945,73.00221953549861,6.98709549448049,21.406751955723685,-1.1436374672709253,4.6588577560038305,-2.2196570010533563,2.192669044684119,20.77158655399949
22.70815656268425,21.41588136282957,3.3554906143237915,77.17279585029895,6.9620103251469665,20.97399143615227,-5.506586876453838,6.973059961976527,1.1538212692205345,1.9397181571206183,19.380863449672866
23.45661705684406,23.789332101141724,5.25127885113946,79.30016639835667,7.123158459081454,20.208353159410354,-8.067183951280235,7.861667685935598,3.9273552619276497,2.093562618022398,15.33282222652942
22.340536847899216,26.554575210369862,0.6062812662414404,79.42997833387358,5.967033286438593,18.482724439731562,-9.00160063702397,7.631252134084328,4.900721583893075,2.5805604388311143,11.18083206394942
19.832315344723153,28.57014470255752,-5.643968106010337,79.34923584006886,2.4066026998786922,15.885222972730269,-9.37176232008804,6.350780438716278,4.370624804507839,2.877970825886754,9.906784420498383
17.482892498723132,29.591619663473697,-7.346896941224553,81.11152392564425,-2.589827853553881,13.716826691748052,-10.002286706825076,4.205026346560588,3.431334814550959,2.563975068014291,12.444409064747848
16.57903400141527,29.94262577368893,-2.084681841883155,85.25876594663784,-6.299660805600301,13.461428975389136,-10.845632127597018,2.086308282783896,2.853824410454042,1.7763753141384038,16.695295818403014
16.913839015860763,29.885889670726975,6.881830672967667,90.21331669528097,-6.374650849588358,15.313522878971025,-11.268752632908544,1.393984050520709,2.618801894437856,1.1205431912470276,19.056148799186303
16.98200383676206,29.536085278148978,13.20403819445771,93.34968832208041,-2.921359795355621,17.833208913560018,-10.784615085084704,2.832543406679562,2.286964062384876,1.064425516950742,17.429775906260605
15.486607288009328,29.33925810970697,12.441281098171087,93.02348682952878,1.4790037962549163,19.145797365798114,-9.564887027489341,5.406287194037227,1.7099908780144222,1.4072618518549413,13.102179054917952
12.657440391148143,30.247712779929326,5.3977444153404335,90.09343247146899,3.84452131070185,18.561784838696347,-8.323673086327148,7.14218175919996,1.2756193325885894,1.3492438767297603,9.789009619562746
10.087118636665148,33.08911513838016,-2.7251818388817615,87.57687372185208,3.1201872380760514,17.139442997955765,-7.684611054183215,7.034963018298303,1.5056152459449552,0.2219686265758023,10.51610286803932
9.342399066186069,37.57428235412191,-6.406401020141667,88.53144665332525,0.771857072863182,16.64390887628668,-7.5688211190317105,6.16458956492893,2.3806906191788637,-1.7168398865727215,14.960576849364434
10.750178751584643,42.09504609389539,-3.8548567475833977,93.73425125013554,-0.8223544707076405,17.868263314721837,-7.114536431032375,6.693436189657956,3.123557468172703,-3.252499046734274,19.61277497912954
13.542178147018618,44.785648139700946,2.176366966101294,101.00856332966407,-0.528912388364205,19.929614300310046,-5.354771145610339,9.37685007330001,2.7522153426534786,-3.169838901294037,20.70785942916602
16.79799996286336,45.023660116253474,7.079689426475475,106.89598910028224,0.7646659680722871,21.05001101459014,-2.219436686812796,12.147325445271267,0.9917949498206691,-1.3970276355916773,17.367481904597135
19.963340266911665,43.95501676003403,8.098927757360633,109.36557081908829,1.2769826721357245,20.07262983248887,0.9579628477130382,11.61958012801124,-1.2521825928936474,0.7575136200172256,12.236378979402913
22.493627752252102,43.42428690278397,5.941546635170223,109.2669240639447,0.1009603127772718,17.445247911923424,2.1790459230939163,6.3922247780194,-2.403832464222579,1.6911900950709886,9.10570431524031
23.395561168296357,44.30621345053627,3.31048213048033,109.31224870236537,-2.029333835404398,14.833024768865636,0.4993257724577167,-0.9248355017529644,-1.4243299361378623,0.9448023328026525,9.788495831817608
21.668377689819348,45.84496535266659,2.020520567081723,111.56171898947571,-3.502633431338958,13.851354314750141,-2.6842938918018326,-5.2360419328669074,1.2539238212623252,-0.36025111799167886,12.994285458944917
17.52998386127954,46.647909195606815,1.603498079107661,115.73847636590457,-3.2467160149072094,14.917172533799388,-4.211928531828423,-3.1349054598788353,3.9323170293162297,-0.6533422635670235,15.931783018698118
12.98538623290409,46.300491195650366,0.39709581517391757,119.75533875560336,-1.4800923803287847,16.9776285967946,-1.6477594556959292,3.890021428886119,4.863831658156002,0.34737688710710435,17.016226267776453
10.547628367826412,45.99511336939549,-2.307049253114637,121.87954963330023,0.6669746861711139,18.22576174240851,4.284523915278276,10.276913304273211,3.587645666175476,1.1096872859640854,16.96430599649724
11.002172124840058,47.46578698499691,-5.319941409611204,122.31437454136208,2.0497303314943567,17.24015328263641,9.750916999734864,10.693273478270493,1.2810619159827232,-0.27846512586510563,17.434291055490675
12.514989937605531,51.21297061911663,-6.740376040331356,122.69409405251108,2.1059406437283865,13.736449574243938,10.810235862484586,4.2602976484178665,-0.2746299600000248,-3.9724146566392675,18.87700516888892
12.366513064838472,55.786328628118866,-5.790847033356808,124.22566777648424,0.8928546074732018,8.668087669022754,6.944345136637127,-4.815635846410591,-0.18392638073983658,-7.6558990109412015,19.78338731884891
9.833867751261092,58.8342279854721,-3.454880179496086,126.42851795189628,-1.0955712070673878,3.7792284526930153,1.8533764631489085,-10.541340185241557,0.8910330928490158,-8.21144932594951,18.18393189680079
7.216730783559759,58.97574336836537,-1.211936362634547,127.77477897237799,-3.054926059379191,0.8482293867091233,0.37061790148043805,-9.580583941676093,1.4123987007946301,-4.498374789137423,13.881267958106683
7.70238681307128,56.84603825602368,0.5416861567674758,127.45978221442142,-4.029398646860024,1.0174268680443168,4.112012403689689,-3.2876903535591144,0.3814167131401822,1.3451316590592182,9.10904939177828
11.834989757020795,54.49005070839523,2.643620350278689,126.42107525412504,-3.4022195546642955,4.327726990720087,9.889314534324301,3.9094321512260417,-1.7707083338036531,5.446680685130449,6.829961968755441
16.275669443074047,53.67002694651468,5.776286820496997,126.47133941156251,-1.436497899878957,9.53786768342255,12.566511056268492,7.985353278684439,-3.6153667343799567,5.319230998746776,8.132289784268668
16.508056455152506,54.69047877097847,9.122945708805148,128.47205683829534,0.6910251860840164,14.431123389443616,9.797328140369157,7.843872111777239,-4.036235137330079,1.7846992228597713,11.193865482944712
11.16179285743197,56.58574770169162,10.722642730026987,131.50144113870365,1.6401308010395108,16.783762674507585,4.200647629124086,5.3190930422503815,-3.239887766165844,-1.9521009877149564,12.79339194012042
3.7494856726105583,58.22214857659705,9.404534265368824,133.77317163624673,0.9838021300161273,15.548012602247496,0.8431629615917404,3.139608201782349,-2.6111205328226252,-3.1391673146962695,10.98573560684343
-0.19214361376847577,59.2119733398106,6.3389064979735785,134.34661215677573,-0.46843243930551903,11.599532877812631,2.4516459435376037,2.806326343783789,-3.5606622211115715,-1.6357353152449274,6.6537530463654155
1.9156218158506062,59.781525572852985,4.477738806754762,133.92108695756673,-1.4092466031773632,7.325206582753124,6.9476429008179785,3.8761644431480278,-6.331194055265972,0.41752108720005143,2.655416767679954
7.308444779917358,60.056412826499525,6.128947209201514,133.95572210646395,-1.2155838407735948,5.094634560056958,9.685055494327564,4.780282353639133,-9.687492815127651,0.8214637934514932,1.3909862975605778
10.433539181895064,59.58376237805182,10.79173227699667,135.17596261923057,-0.4239411249246727,5.585061779346071,8.053007520542787,4.189530816688331,-11.723757329460959,-0.7668602288705231,3.034880457584113
8.083385636786847,57.66437537931559,15.149748158124424,137.0041949767015,-0.0017245138412894656,7.276643787271659,3.902385618164344,1.8754524367981324,-11.075224437988702,-2.8543481174263636,5.72498053161701
2.2316844687818436,54.05636214623072,15.258369296356818,138.3505602791633,-0.28394888730797063,7.628239121215206,1.4428585182126188,-1.475870083098667,-7.764903732907688,-3.7682809323582025,7.276229005884277
-2.077071489383782,49.33852084885956,9.269383878171157,138.7119716641164,-0.7317017958693903,5.021004012509201,2.767992917332455,-5.079512268618606,-3.184242331644371,-3.1580709042049704,6.836680498101939
-1.6241648901121177,44.615437850644675,-1.2930126460044251,138.42641457324999,-0.7948642338136547,-0.054873489973204626,5.632009570101132,-8.593371455507807,0.8153377662922249,-1.955798406803142,5.144647727872621
2.1022768625069768,40.88863173675435,-12.318620501437534,138.028456607331,-0.822714895722575,-5.502063157878478,5.6813895767911955,-12.008401162968338,2.9761626730741324,-1.1235703024279462,3.4220570889186344
4.544549887635663,38.68487598411664,-19.217440769628343,137.6138020217312,-1.8393392567177838,-9.311694091534303,0.8917503302752334,-15.037577214947927,3.2044564491729304,-0.6348445823018896,2.1750904573113576
2.457777713114582,38.06000312649312,-19.150058874919168,136.9847010007869,-4.247695986063452,-10.963277593388185,-6.222430039155211,-16.718538695518177,2.302464931934246,0.32425438907485404,0.9614987896591879
-3.3182216100719875,38.73275582907654,-12.45083885701236,136.31936740126565,-6.848016328767519,-11.414958729629756,-10.84157710694441,-16.03796543056015,1.125477952766853,2.203060976351292,-0.942401832239051
-9.062939914897836,40.13657286420403,-2.634119616189526,136.35791901535475,-7.472552683997022,-11.891057728669468,-10.367470515317047,-13.109463510629325,-0.036928079094785016,4.273747287526896,-3.777775410115815
-11.795345148297152,41.41666102469189,5.278603847878142,137.6564599833137,-4.929763554418867,-12.637265370274259,-6.835285923663802,-9.67290280058847,-1.3489960868667374,4.999597241144299,-7.132480541688729
-11.543256822613689,41.765014918208266,7.617820352605674,139.76328382778695,-0.45129896768841427,-12.767197539078369,-4.889336261446689,-8.008254615401441,-2.682242588201489,3.2701741890343095,-10.36489802647604
-10.39629656423337,40.96401512883965,4.44749578685321,141.38867540700323,2.944203995334498,-11.210825706382957,-7.359765918062379,-8.865002092646845,-3.1335429595767046,-0.5702485158267878,-13.054571680046838
-9.847100513459894,39.604724960898125,-0.3862325018039092,141.5531487074815,2.8502221281421676,-7.847383900249812,-12.63533640304073,-10.433242779135847,-1.6171840755701652,-4.81798585877286,-15.02852295000839
-9.434036555951383,38.565055410100115,-2.0652454859876936,140.55532978355888,-0.4897059583752356,-3.846154054745968,-16.23011858884668,-9.618582111799295,1.88326740588347,-7.507397356118984,-16.11637423661713
-7.931960895667718,38.050872431247846,1.5200985142165244,139.616678702582,-4.367516446141719,-1.0543709694200354,-14.913898445239251,-4.9663470336330775,5.710361793012054,-7.619845810134113,-16.060719782220445
-5.4196281110245295,37.20295021121255,8.118269382324579,139.48660227386807,-5.851161763665093,-0.9074817490884275,-9.49971997934527,1.461905623602215,7.431748717536023,-5.552373804929633,-14.821525684914985
-3.7479377043411928,34.91690876083442,13.023539469127002,139.54505861373542,-4.045085585520381,-3.5378380802713245,-3.851805948281661,5.353703513745142,5.845591858794213,-2.611287785081479,-12.983110587041002
-4.804295113536842,31.280318619675555,13.019312559550801,138.46062988451797,-0.41034999554144613,-7.6655071700544815,-1.3071367628393178,3.6630465219368524,2.2997955792367972,-0.1390668019164525,-11.582059307879256
-8.491698328456733,28.181991558232795,8.843816581926546,135.76537864047066,2.8874784676368783,-11.34894895247665,-1.9668162126572666,-2.5770069505275095,-0.1899298365736659,1.0679974111863708,-11.435533402033396
-12.548749378267667,28.103555933933553,4.055873144743301,132.68760523375116,4.759862788626883,-13.137622479199786,-3.242911144750117,-8.985803631382971,0.5201944919899659,0.8015145758205096,-12.468106511815058
-14.508224267495745,31.886298126105,1.6203850948416758,131.23320939692718,5.5216892960495585,-12.971406624976439,-2.733816340900871,-11.547925797836275,3.7242550249286515,-0.7815118135745283,-13.694591093086144
-13.887988136223886,37.386220078642275,1.5375210635219376,132.3489851497066,5.796251068839126,-12.113563645110272,-0.4924122549716815,-9.811092018514191,6.410413157315666,-3.2798037370898356,-14.061210872736783
-12.391819123897434,40.61286722471097,1.5749469736903925,135.0716264768254,5.453222510962516,-12.150663051698691,1.3670954338961494,-6.669098895814931,5.9528719393827085,-5.998929118019979,-13.3669082576288
-12.165972889861171,38.71810993873727,0.09845675659454267,137.53747765918075,3.8589866836881335,-13.696132078379254,1.0546375186550616,-4.9822223654447,2.4740581123881995,-7.93934282157924,-12.477703607258018
-13.874420210314266,32.50366108780381,-2.1644973053374335,138.76132725420106,1.051984363004256,-15.991619814044093,-0.97064752088927,-4.608257337141293,-1.278963694047531,-8.118892372549068,-12.618443012522858
-16.349433867329253,26.15016748851782,-3.1829388682170894,139.23491555072755,-1.5827067022690045,-17.727759793292535,-2.476720034608821,-3.016850938865334,-2.4354685143497288,-6.166262103992978,-14.316397747502704
-17.93225369915063,24.12511814527508,-2.1347258589869362,139.83789191381646,-2.1206164260293905,-18.33005665107788,-1.6647669440988406,1.2991658162107584,-0.5192989311365213,-2.66352441770399,-16.926339954442668
-18.030722310182956,27.79283146881852,-0.4683273216182938,140.41258923537936,0.2605713033876049,-18.41825323931542,1.1503836679345552,6.301787649438643,2.3051740200382613,1.067663418030357,-19.11638768291909
-17.432843802834217,34.44297433779944,-0.25565416856996737,139.7038488258845,4.340157370925697,-19.00445493552508,3.965357846379484,7.696262293119928,3.308161540714243,3.650954544968373,-19.847921239824615
-17.367400845142832,39.488509078256186,-1.698021395585779,136.84703932331385,7.655343696367986,-20.21038283928901,5.087262428728808,3.0777455696345397,1.4702183144055538,4.383612902121036,-19.011689285463987
-18.347336429329964,40.06730859643329,-2.6277378732934005,132.6971168448259,8.37154371632841,-20.958451537536156,4.6567691020880355,-5.274576705885517,-2.0268815383837513,3.485276153354273,-17.32926121830631
-19.81719047105397,37.065090309413996,-0.7844850558681749,129.32732764272083,6.565005425315676,-20.106235686380312,4.322078295556313,-11.97636319638919,-5.217948024708686,1.8259282671524892,-15.698031062646265
-20.670783788066153,33.97268702883982,3.3653432268006114,128.06344421488782,3.9217869974430593,-17.83141188778072,5.466150925268561,-13.17564147544623,-7.023771361868967,0.43998489416777486,-14.641826512437099
-20.127755184255882,33.637508002554384,6.329306855342057,128.0654823411607,2.2654112320926814,-15.708963001623532,7.853530951041633,-9.856637595616306,-7.6310459565829145,0.07138900154101391,-14.259682005824796
-18.252048988218444,35.79425090226268,4.594834038592043,127.07748765866661,2.2292963568319886,-15.288556479369845,9.900386712507984,-6.462487363192572,-7.641169837503209,0.8830967859154542,-14.47580668752651
-15.863644151327385,37.51384114054553,-1.8402800180420773,123.72764844583469,3.0760743225947684,-16.61646255144459,10.154447041601792,-6.33557693267331,-7.187336420634695,2.3639567904663177,-15.244452794061305
-14.075225399834315,36.08161133470579,-8.937291733536417,119.06392318700331,3.5443779797893225,-18.179337148366518,8.552958731046646,-8.54713466506654,-6.025305194690663,3.504715619897757,-16.470907624843278
-13.685942034133316,31.647943077801855,-11.956243632022769,115.70387406404748,2.851676758755104,-18.458733190605095,6.358204751673543,-9.256676489615192,-4.225362379458434,3.278235660451669,-17.730640660202212
-14.700102608534067,27.17185251095651,-9.569989613493597,115.39178528370981,1.0770408162966612,-17.430052979421575,5.031839565784909,-6.210680126910917,-2.506392392554998,1.3376851700133088,-18.2773218938162
-16.270580485622272,25.629875510255943,-4.816277196861531,117.43551286544263,-1.0941944665251144,-16.369492995909624,5.1751547088888055,-1.4305767410800856,-1.6993771182453754,-1.5488801521610038,-17.42661421883405
-17.16323681330268,27.04958370318456,-1.9013737381221871,119.42787475912087,-2.901414716852004,-16.34209799855619,6.320884641009621,0.8100429569082213,-2.007699957338424,-3.8448740788503235,-15.14268270077842
-16.43309149481027,28.1733833635911,-1.9050607598489164,119.39740302479231,-3.868959550174247,-16.97521442394492,7.41659576944755,-1.258045172177773,-2.8338515922032452,-4.270958648165058,-12.323848490485261
-13.968915460637827,25.27049006808182,-1.737473821763544,117.2904189227705,-3.9095065413876093,-16.94778908788521,7.394161064324109,-4.435260989711151,-3.302657892761972,-2.7601382332662867,-10.472491105733056
-10.482113957411546,17.635845125449393,2.43096838861251,114.51747463666092,-3.2914424491824255,-15.622633699748514,5.663192222187971,-3.2901871269867926,-2.921522324253157,-0.441428290573485,-10.774947344576226
-7.0721416325201565,8.617559674948161,10.525020258085037,112.31648414981316,-2.4997835303320053,-14.047408005615528,2.447008192005668,4.252921292861,-1.8133926504652382,1.3825938739858534,-13.22266684963394
-4.847255978443448,3.035581761882952,17.45429865153394,110.7461762171701,-1.9907556850048138,-14.085925499418465,-1.0717154188058513,14.105660135985378,-0.5233094767914985,2.31163350641576,-16.50231255131843
-4.670091085976058,3.159521211250201,17.00831370437587,109.16291026819879,-1.9098970705344684,-16.555926778141295,-3.192416936801634,18.959499140957206,0.32155730509968583,2.9537101507507835,-18.71068719226986
-6.948351177497901,6.859461465458988,7.595527825358593,107.23708613077824,-1.9821957784122302,-20.24468869162981,-2.7971488450623845,14.459831191609059,0.2288493877091718,3.9730780058768502,-18.564917162787193
-11.286074556178125,9.51476115565789,-5.632754671029438,105.30901444927716,-1.7537275283370086,-22.817726983249415,-0.4165531762162542,2.9975171628802295,-0.9689320620196558,5.062901419362959,-16.20718849234599
-16.239264461195205,7.982858227949524,-14.572616272541069,103.81441516465765,-1.0353166272132084,-22.70965724792219,1.7809309058358194,-8.365112837255447,-2.843528814291581,5.030796626747398,-13.027508154261962
-19.75850706678379,3.040508971476232,-14.58920343032976,102.68856763326937,-0.13314641508506186,-20.104276641121732,1.5537691038253267,-13.638549042186504,-4.375976194939955,2.988925668191785,-10.698102635410295
-20.32640357914039,-1.7540906722147298,-7.974913104506735,101.5023888625728,0.38366988525856605,-16.36794482577146,-1.4921807551446102,-11.955001231414032,-4.565897557796233,-0.5036385799691627,-10.164208913626387
-18.020197498630544,-3.4985976837088693,-1.3196443500777204,100.10896167743033,0.20655246434064967,-12.785718572160444,-5.304378653977568,-6.703245336252866,-3.2357968091928146,-3.6370348186736337,-11.208892541395377
-14.383904720336435,-2.518544229708361,0.4585994750943807,98.79343158951451,-0.41475459737964504,-9.980669711145335,-6.988092284179214,-1.5259764967650735,-1.2971753516920312,-4.781076640421288,-12.751505279452068
-11.07758384865579,-1.7833887408347877,-2.2178349826620156,97.63540669078725,-0.8987605847962774,-8.360992121060713,-5.387108928502156,2.4015003906196255,0.027976232569476234,-3.7724099891311473,-13.518531224721052
-8.40922302585106,-3.9196539709288167,-5.3665399191843335,95.93040318906219,-0.8735204495900772,-8.481896324046291,-2.2882637460718107,5.501354139332084,0.410038208128483,-1.8650662719188815,-12.71696273481975
-5.379423547869886,-8.715678223695843,-6.2206161315177555,92.62002932703916,-0.4990777723700415,-10.488143088282872,-0.9431210683607087,7.290558509129486,0.7003853138049215,-0.4010987697876778,-10.34343222431768
-1.3103238725796107,-13.306572666041873,-5.979510002467151,87.55753677356827,-0.2311145352192019,-13.181740888464823,-3.2119395821641037,5.877241891072409,1.9416443591697778,0.3607830982078166,-7.1869832298904734
2.6286337240278446,-14.73207263242847,-7.8057556413915625,82.23058627185478,-0.32818108974842053,-14.074246728775371,-7.8231252102208035,0.4246364335028867,4.039935060751263,1.1284534013783531,-4.513944913042392
3.900817941760752,-12.527020924056423,-12.419958636835744,78.8703320352745,-0.5644045221884484,-11.005110294817474,-11.361369200371072,-6.60950835789023,5.556117724452111,2.3927838588439356,-3.452147922481738
1.0069930141801469,-9.121877530082639,-16.366549138385057,78.52628851646747,-0.4975378842044811,-4.235669902534777,-11.058020992468922,-10.64200837678857,4.990397742339097,3.5848207804431107,-4.2951626071964055
-4.38107881093298,-7.850129997764942,-15.135698952835321,79.92191796953354,0.05281909794940742,3.003549915457608,-6.897780532995012,-9.11000018520208,2.3528514212187748,3.5528064904829653,-6.169359049855405
-7.971794722225036,-10.305095419275602,-8.006681437605781,80.36742190906918,0.8664545889260102,6.524097380533609,-1.2683668247951168,-4.437478643897501,-0.6652514650307819,1.8627365905501292,-7.392216532285888
-6.150552357081757,-15.156680854592476,0.49568888186462656,78.04274831222668,1.5890294904541684,4.28048583829015,3.259495454488544,-2.109909085403409,-2.1191815033903163,-0.4921407391530108,-6.44908421122543
0.8205041184208328,-19.233928056604952,4.521999165304138,73.5024284747828,2.1011488891860006,-1.885038902391877,5.821846723853617,-5.189597672018442,-1.4744566275571835,-1.7832882832717507,-3.066623479685133
8.667692733214293,-19.95971076169245,2.4639556911938016,68.98821688988556,2.4855104010186393,-7.36865480577453,7.218818934489664,-10.731538961499684,0.18005744037648863,-1.0309621484538307,1.4987271283447172
12.323457094943906,-17.289745930589717,-1.5251087025509127,66.24968163291572,2.671513857597717,-7.963606522317091,8.352706650899028,-12.060115355235057,1.4497297664840658,1.1511656402706483,5.316750528742204
9.755805485539629,-13.74800324098387,-1.7953490052449976,65.01623642561209,2.2616313538354484,-2.6245079760606367,9.0221729105994,-5.364290991272231,1.9717771929045451,3.1905446641619113,7.132310416782118
3.2345630527384968,-12.522811211342805,3.0004255343478246,63.53506720735295,0.8461623028963481,6.137916446496674,8.314430071399139,5.834061817112652,2.3320774104538877,3.959110868591809,7.2081949205443525
-2.796973828310498,-14.988115046225975,8.403882283360662,60.54060838639145,-1.4194389050639589,14.237159892598305,5.972220409918277,13.014158258356176,2.791617291890986,3.548328790307369,6.97298126540109
-5.032153543705256,-19.513720909549647,8.678121072007633,56.64553130220886,-3.616288405180323,18.61266059459426,3.2190492917608355,10.038620937030608,2.4836496241787493,2.836547793604556,7.767250107104528
-3.009673723987727,-22.684097833532256,2.9144199360332266,53.750658476638826,-4.627549939378309,18.638402293377396,1.9513200022349522,-1.2385101700183658,0.22324769853389403,2.440400279223181,9.739487223276555
1.7010342943501913,-22.02468891302732,-3.536456986951156,53.160647489651595,-3.97586589721317,15.756008336405973,3.0992814945158402,-12.42657481862027,-3.833827077471941,2.1791236844979283,11.761076767522114
7.315910514791229,-18.095877459309406,-3.8615849610996134,54.19330778605496,-2.1569647573761452,12.051061863916347,5.7340615001865345,-15.732157141642329,-7.549090345347944,1.4122956824025834,12.34926468988711
12.67796876107206,-14.19965225881778,3.554334952453026,54.64519023090857,-0.1714254707456665,8.991272196546067,7.8476049824577725,-10.129107518923103,-8.175409921377495,-0.26647299592897644,10.913674668654227
16.82909241037369,-13.768602928969436,13.241432463775688,52.6439612187519,1.2563533210730795,7.0403603870386355,8.076789803653131,-1.1920809868788602,-4.66998879531857,-2.714006434015858,8.229838167465022
18.603305728919178,-17.57522596923772,17.207484606666235,48.17305227701994,1.9820316672560292,6.077707792192932,6.788640503286262,4.575577685036153,1.2362559698703155,-5.3905128593229445,5.905329423410158
17.17216048056257,-23.19144480847713,11.748832060974909,42.98595859682148,2.050381621133404,5.995705612552849,5.489389329338902,5.13767905300139,6.2793726699349985,-7.624727004180064,5.303241535254507
13.155510503770342,-27.238870705873786,0.2615538185343269,39.101643109539054,1.274495568365519,6.883645855364163,5.313465249000873,3.1973133944581043,8.091953068365576,-8.727722828442365,6.770498596410595
8.749630648604935,-28.28124320625108,-10.147352324974557,37.25365214540777,-0.627521704710344,8.764164306789716,5.984164281353266,2.064535849194328,6.681939879734433,-8.120851709406793,9.634492175572111
6.343603058141992,-27.81418990265341,-14.535450811964424,36.53900172067742,-3.391523755114461,11.298718046499815,6.271139331047721,2.075043471997409,3.831673752587052,-5.7360658524750505,12.779907916240274
6.699173199618391,-28.52829503334572,-13.135935671791364,35.35031650980655,-5.890706119614707,13.792397551823042,5.417525874351375,1.104650044964046,1.3137657506627702,-2.4640261862192236,15.313608418989999
8.43608609154642,-31.628706483685324,-9.426294241003083,32.68213159900895,-6.741332739404086,15.566054999352826,3.9961866650431035,-1.9956663300507298,-0.29901439219972037,0.014374910932229368,16.903314336251192
9.37101214447635,-35.873813691185724,-6.194913251962949,28.76176980023186,-5.4030806113762075,16.386093472190364,3.338834769371499,-5.315116211884787,-1.2925600591980333,0.24814086732617202,17.65653074981596
8.456587394358955,-39.1323050461787,-3.7390592103680795,24.638726917576257,-2.7865303249604105,16.576131401556594,4.110453909709113,-5.645931005924755,-1.7467664243603926,-1.8344554730897304,17.82200263851719
6.513370739251732,-40.69538219377623,-1.3329480452631364,21.293402477643163,-0.6294713908953411,16.692358536902464,5.459118153372718,-2.1622481011102845,-1.1217560701739882,-4.666651810431621,17.58898616999794
5.227198488983235,-41.875888285288546,0.4608909283750027,19.056820843616208,-0.1204164084662449,16.976886908026206,5.6131540627896985,2.251462268825804,1.0078279685461398,-6.18667300682007,17.040053945046704
5.581150552846979,-44.406382213983775,-0.18024044373633652,17.685323766950084,-1.0001994999703383,17.159810537961185,3.437148340629599,3.687340614837324,3.9664122278079432,-5.449567629410885,16.236711154536966
7.266973704263612,-48.266323569024784,-3.8976293782579345,16.845937111888617,-1.9348731002599766,16.78752053451236,-0.4873800541962323,1.2223864177666588,6.073736628443833,-3.3094957991221134,15.265007571948185
9.435184166360148,-51.29975676209219,-8.33081666236819,16.42647500068672,-1.7895191329166642,15.793142503023779,-4.3463889103539115,-1.9409056753219507,5.96986372069074,-1.522183490381781,14.226507459335417
11.821896388452165,-51.19754353903454,-9.32321329784584,16.31330159448062,-0.5527805014258437,14.661904561517167,-6.655731513050303,-1.5933523686679913,3.896286675847376,-1.1988967401521264,13.210169598067278
14.890342512612122,-47.83236326116886,-4.501840833002843,15.908972913720199,0.822036779196531,14.057782843226654,-7.420084280123584,3.2921094583438073,1.6531469865060104,-1.9894341462183935,12.322456703915709
18.887235726959307,-43.648231641260615,4.158503378621498,14.125381724130285,1.4082589939213195,14.250533009026814,-7.829878897705174,9.52513759490768,1.0663988797561794,-2.652517607802841,11.784532628027783
22.852692602379626,-41.68311736225537,11.491220993294945,10.122410867706336,1.1274706461217936,14.858961400157945,-8.896442110609817,12.763910969391555,2.3579805781516843,-2.354389992437693,11.92891915844543
24.93187461073754,-43.126983139785374,13.18158971841916,4.272160376852341,0.6737502226485914,15.259935626356679,-10.411108739765725,11.636946931214114,3.940214323762682,-1.364301667573326,13.03052690115044
23.807575835807818,-46.676399313206154,9.097325809274889,-1.6435463982404883,0.7557323559355852,15.267810317225113,-11.197615485383315,8.72312786143942,3.889916065371251,-0.6018296557543128,14.994242630952858
20.016383674406445,-50.05583002258078,3.0985393781880775,-5.492576684609652,1.4445717610128574,15.329346633795197,-10.36239511541962,7.628179024874294,1.8012860472912706,-0.6130543505054572,17.20427116260741
15.803342768478638,-52.06658367788657,-0.4071455068990031,-6.479463383047943,2.1736807448260733,16.04646897416231,-8.236646692825559,9.27817158987881,-0.8123786831243636,-1.0551708487843499,18.75860794722616
13.53715311677298,-53.20851467484199,0.11063769458710215,-5.96072403166837,2.310458243135259,17.429471580197315,-6.047647803672225,11.15354172609473,-1.8880111932990635,-1.1486629691596857,19.034887922720795
14.002238281089884,-54.57640567482939,2.7529462674319567,-6.453338483475626,1.7301441449871846,18.657746325568716,-4.777276256483187,10.110278576400432,-0.6569571986700442,-0.4995482067611534,18.201345076799196
15.97980768719143,-56.43247661761134,4.539979245854811,-9.499467648931727,0.8914749963072155,18.66631427619522,-4.43005119034529,5.774677343462251,1.7854120708332069,0.49482779903786867,17.201911188375558
17.409531675727443,-57.962805761335574,4.075635961794065,-14.241461349486372,0.4436977783937426,17.138183854578312,-4.398223000292763,1.0807855780449616,3.700772388558954,1.0035750492631794,17.12425398144509
17.071685655677502,-58.33456620248222,2.217156485395427,-18.120575625471567,0.6813202307680806,14.99161745624582,-4.370013644346826,-0.5093990896307745,4.437643749682873,0.478459437506926,18.325341393077853
15.348925391209242,-57.720313295642256,0.49467996357082944,-19.218482855124982,1.3262682693660688,13.802798135225483,-4.66342389387297,1.7476207925665395,4.860782988788527,-0.9048298831824992,20.077181775133983
13.623796806004929,-57.10890828400083,-0.7187802794361069,-18.13913977537642,1.7714507306800016,14.591854641648528,-5.606566286306471,5.2106720183508095,6.012457975467792,-2.356315446994329,21.01973582961616
13.069228923103633,-57.15055774007119,-2.3199162327695877,-17.57503305678729,1.5304593621544238,16.972498534700126,-6.680545485837875,6.133280778727448,7.464703466329524,-2.9497702415192504,20.1970168620852
13.859909246038063,-57.32149158424641,-5.021207932193678,-19.840509960528514,0.602445148317629,19.371909037580274,-6.5782350916145775,2.779337260164985,7.285647506083062,-2.132059897776088,17.842238994836773
15.367248387462187,-56.380134082780685,-8.072871541814107,-24.682915318081875,-0.5432303748592093,20.124626259536022,-4.332766063842744,-3.3746867219992485,3.934936129811973,0.0055641889953819135,15.270470175104244
16.94912432321512,-53.63637461121759,-9.64105589249959,-29.47441548474707,-1.320871084300887,18.537904362462683,-0.46055915198224606,-8.982090487637375,-1.695608311571299,2.732330165197437,13.968545743088882
18.37468639209142,-49.76141661331916,-8.553046656413267,-31.623559373637672,-1.4268972939318425,15.234999480033089,3.0585628080440834,-11.121478046904944,-6.323995547389224,4.993463373121861,14.52697645509555
19.622410336139176,-46.26418761763034,-5.573498805540887,-31.045818966365285,-0.9805216753224966,11.639881832722333,4.249659152309015,-8.969305628000741,-6.7529199067603605,5.9042666663716545,16.20835258753508
20.451613631486605,-44.25311172379165,-2.794594928295474,-30.295533152314814,-0.3815775600604794,9.16287742533562,2.7647840159083312,-4.025514217133212,-2.7272650774624827,5.1764098279177215,17.411114347567885
20.282402198975486,-43.61998330223681,-1.716035497542594,-32.20025881944461,-0.02210177806134661,8.570474283826723,0.2701683375085735,0.7931897330714053,2.55073946081595,3.2177671932875707,16.74146498293606
18.609903308404547,-43.34634712089748,-2.012353236451383,-37.251101932953354,-0.1504793309106609,9.738940002962075,-0.8215550864353074,2.591807294907203,4.9259641839187065,0.8617216479514411,13.899182070242892
15.541890357966837,-42.58183750981818,-2.1902529011874794,-43.15306078985086,-0.880654356131503,11.727612118858785,0.8475997773820881,0.058216474195806,2.705375282726835,-1.0486814250915995,9.853018298403118
11.967344547586185,-41.41228629319296,-1.3847185090337175,-46.815489619080125,-2.12139014893086,13.233481357445589,4.607412290674146,-5.457135981748769,-1.9992978645945898,-1.9692050217163328,6.257111990608898
9.222630037421949,-40.66270291125268,-0.25234096864900035,-46.942895369606276,-3.485744450925309,13.302566387015753,8.273313910105099,-10.353771551391867,-5.121611075541358,-1.7468114846079756,4.486609217168132
8.36548481759615,-40.98829688629701,0.012981455148650234,-44.916889303535626,-4.314051203184678,11.970222019464172,9.634773023817004,-10.914176103964987,-3.9812078850517043,-0.614699672819171,4.88405052892668
9.55106313922112,-42.26981494655127,-0.48563315331144263,-43.39342736515212,-4.0176487735958135,10.332220768106033,7.839905203264163,-5.918774308104375,0.7112685201258133,0.8377918397419102,6.5772502268481245
11.786598451673857,-43.72830064761392,0.1043019912155605,-44.10774570210714,-2.5793349016418694,9.727118669380442,3.932373002729955,2.275592689414233,5.710261346560738,1.7777471159321134,7.982998325457384
13.374963539110482,-44.50266321388143,3.5542190955279307,-46.8226123367061,-0.7708045476898124,10.587524603907353,0.29787293485208477,9.470182945707252,7.879726535403858,1.491940177168454,7.736846357149327
12.895811354227924,-44.14396855616248,9.205130224573775,-50.07121219456737,0.2617631912656576,11.96660001622131,-0.6799500188674912,12.78232393448154,6.306236960742255,-0.09419118442119623,5.553951177867185
10.227020160695002,-42.77141644897887,13.747840449464714,-52.60827484885736,-0.2263793940579497,12.324869654216194,1.9636164330101211,12.498856196683096,2.49784278100014,-2.161824055179583,2.5289428158659124
6.776389784562834,-41.00128962563471,13.895995000574338,-54.200693599539974,-2.071256934000821,10.928992159532248,6.994727004935301,11.014271774256244,-1.032144760222204,-3.4361236879457766,0.46774266958616284
4.494304766636143,-39.71428590997908,9.594030633849137,-55.285126419856354,-4.415288548950983,8.54851999163985,11.48914959775525,10.00192321553977,-2.4080300818828655,-3.074610511115491,0.5719289228504671
4.221306894063645,-39.66657650486938,4.526891177216209,-56.199508381782856,-6.397878804908219,6.680061538261821,12.57477014429249,8.845213250196878,-1.2300312715882162,-1.3644816469719139,2.4177174543737614
4.771719279064728,-40.9025017913751,3.0142435644013945,-56.928371443275,-7.674312067733292,5.979647714103157,9.372773394253846,5.861013050096902,1.4497013499930134,0.41883957270392047,4.049330665965023
3.7893652442489616,-42.46953066485814,6.020520182161816,-57.42028485004736,-8.258372369815664,5.5963431891745286,3.653182724376375,0.8799021276187813,3.8531971178934983,0.9175419369042886,3.4277671624092285
-0.11950447369939976,-42.92044309774151,10.030997162127317,-57.894218514778416,-8.051656233324799,4.113206140862546,-1.469856279383071,-3.833944684426333,4.474726706591099,-0.3469899397240601,0.23720457273865914
-5.787409868724084,-41.49725411371138,10.097201080438529,-58.660595966877196,-6.723237827407195,1.2437073230000695,-3.778987212362189,-5.533081826251932,3.001003523693074,-2.6643397006478464,-3.482276514714123
-10.15070783840897,-39.07245688765127,4.447042550352466,-59.67575530226199,-4.107559776873504,-1.5704388004021772,-3.4105664061431975,-3.8748864637187936,0.5879089421920054,-4.70011030465828,-4.673759998615141
-10.823549477958323,-37.853796446209465,-3.6829646361325103,-60.41982076247654,-0.7285618113946836,-2.4175687096296015,-2.240016629706817,-1.4433110571539687,-0.9460996078605226,-5.373095122302261,-1.8055348266342899
-8.322741439075902,-39.753826235055485,-8.676151044191123,-60.39632926195365,2.2701754121178834,-0.9204470524704722,-1.8784114446342888,-1.214146012240958,-0.6271476393413231,-4.411543036686107,3.4733955558562966
-5.802151939485033,-44.61892678938821,-7.135688793442126,-59.785043002609996,3.844161301639549,1.0763569703271343,-2.142917659839595,-3.4259487448554413,0.6854324021629989,-2.3121120557552164,7.157106839101887
-6.31471528599409,-50.005186103722785,-0.4872200241847606,-59.525796639652086,3.7742456939984805,0.9521781301715131,-1.5582951797639268,-5.2815332517994396,0.9492673935370779,0.017509757014342764,5.862433463195668
-10.129401308131238,-52.88825067385399,6.482060952958134,-60.704182523523606,2.7235595551670033,-2.4290492970958284,0.6642447693887727,-3.9960669649645464,-1.125162216235454,1.738021144819069,-0.36937549160612093
-14.578417882737773,-51.89838523385825,9.402525765262611,-63.66672157310415,1.5938433828006608,-7.741506706659872,3.2502349221129236,-0.01799324800178681,-4.574145005504736,2.4819508356342856,-7.856323335589586
-16.544366557942432,-48.124698416668124,6.997592503270715,-67.71370302819888,0.8408597521873347,-12.348022764807308,3.593522914682707,3.0376529228469025,-6.7139274630563275,2.5031569968159446,-12.023707548721905
-15.155218261090564,-43.91423046621688,1.068722975557339,-71.57328422314947,0.3840380724797656,-14.394887858446157,0.1899368551903584,1.9684588605741382,-5.435783015430086,2.455224523029389,-10.916071219533594
-12.215143327783016,-40.88228558384453,-5.469985640968105,-74.21289985623102,0.059047774260108876,-13.906522851248447,-5.570462274131025,-2.5604026176623993,-1.2220181941999932,2.882338772298781,-6.579062321481651
-10.093017752201762,-39.03384404520678,-10.25957233939937,-75.36336351853416,-0.043273474682149926,-12.149368464840048,-10.053285646565824,-6.250613889635944,3.0929902081101144,3.7143650252145077,-3.207769466239808
-9.46964523322118,-37.63635453388697,-11.89940726297651,-75.35965224911399,0.29553545550935034,-10.299391644015914,-10.129214109401556,-5.134443004505312,4.670461546304233,4.218354788726414,-3.6921251007304012
-9.22781610317485,-36.56701857048537,-9.793852298411984,-74.62353076335125,1.0695592668218936,-8.875523584846748,-5.721072074788694,0.5806068248195704,2.9790378929270602,3.6558430454103013,-7.579001587457641
-8.307859090443799,-36.45093609161502,-4.413913808696762,-73.42291964178199,1.9175469728640933,-8.204549315514626,0.09143999854274032,6.6232096223096555,-0.02801652557290346,2.1038628424116856,-12.039837849508576
-7.305373955666084,-37.4152620273846,2.3670686349287986,-71.99611395200225,2.3995131458041943,-8.899843647192789,3.549627419912708,8.60598236124446,-1.922940228418593,0.6513097095480895,-14.585889909295366
-7.977063652252354,-38.045647052104854,7.805540879235733,-70.82554585230965,2.342477954783579,-11.488147885984656,3.0347624099296304,5.963537890965821,-1.9177043616365284,0.5677515958594843,-14.951530818546544
-11.182901214824257,-36.092915195829114,9.757884597037041,-70.5652329033824,1.8348184243220778,-15.456181779938243,-0.07743469796211988,2.259692904101952,-1.094884342369972,2.036804281361455,-14.6194219144591
-15.533617565771912,-30.613830558116035,8.042721365350879,-71.61167734694321,1.047002643873877,-18.987601793283435,-2.9970115744303287,1.7074721694222372,-0.8044704895845376,3.689291723275189,-14.777652964820644
-18.367629282930263,-23.486465272407038,4.252540636912574,-73.66156638159306,0.10497103833253818,-20.060822408084363,-3.8267533638660916,5.335836317839005,-1.0611702735975728,3.520489385868951,-15.04147503561619
-18.135501853833105,-18.479911556706217,0.16979270351440423,-75.7730233788499,-0.7427988167158639,-18.074957631339757,-2.5893634525443314,10.365834324305101,-0.7331272580568218,0.6215256849721666,-14.21415013917425
-15.77284683144021,-18.374767091753014,-3.4948501521832904,-77.07853043928004,-0.959109408844196,-14.410062797025345,-0.4283611398688114,13.00408677503674,0.7931674146340626,-3.8037731101292396,-12.074907590396064
-13.741046967755013,-22.57608189845106,-6.824003362751428,-77.54777523383397,-0.010018408886973695,-11.352090877258764,1.801867420595034,11.70655367474899,2.4470291293904127,-7.226318119468303,-10.09622930045136
-13.826078719818764,-27.447237243152564,-9.443413668519593,-78.02151261132596,2.0587455406408446,-10.364450248909787,4.05686268563742,8.01815025576677,2.2460933427240786,-7.764420160730657,-10.185562302362886
-15.823738701279758,-29.128086231225144,-10.133306563930562,-79.40621189878308,4.3770606710526945,-11.286045070231026,6.356924206917082,4.624268737237237,-0.6144271479137293,-5.685225801258976,-12.714507717116897
-18.26382584506084,-26.378362401118753,-8.093067567583851,-81.66442115670428,5.710427781444363,-13.020889149815266,7.999009218705636,3.0369487386724945,-4.535655833969857,-3.175232911209532,-15.953039243898033
-20.03179781646232,-21.036891821382905,-4.564690259308818,-83.56970851056292,5.391120129780378,-14.787490617597104,7.8817676714176965,2.9400289056568227,-6.588898720937389,-2.540818415732418,-17.63883945091434
-21.143605225910985,-15.990798817545055,-2.510319876617576,-83.65407655464844,3.8294727027263824,-16.59179050581403,5.7639801658714145,3.314149009063774,-5.078890636484893,-4.323990176915229,-17.160359635376714
-22.023308277206898,-12.80498644755425,-3.9580017223024306,-81.59171451396654,2.0669626121943496,-18.71799824353704,3.030454804312115,3.6218677024686308,-1.1604953106338964,-6.886037280361803,-16.140758461773643
-22.405945538018184,-10.949961962549292,-7.4056357211724615,-78.73053281433616,0.8421627662979152,-20.906276105503267,1.959730658774304,3.770738368994188,2.0521940674409764,-7.732654188068602,-16.782222463766608
-21.387500661429495,-8.934069360452792,-8.307631420476845,-77.17037032953544,0.06327893633184078,-22.298203603149826,3.8791823826959426,3.2867493483653902,2.1172114652422445,-5.422140191441431,-19.601421808284222
-18.54129216821632,-5.9458056333951355,-3.1631432141214395,-78.06952827292474,-0.8171407775715616,-22.150421926266553,7.876016750381471,1.123208976765314,-0.7524941265678171,-0.6280884591394043,-22.83761909805242
-14.863348485658006,-2.4932348749104314,6.338384504832815,-80.65591292129062,-1.9548126469651455,-20.51771404479977,11.364152692904243,-3.36378125452521,-4.114253191436687,4.301779880475003,-24.117164170699102
-12.328396241088093,0.25914833532246107,13.389599565185385,-82.86032087573747,-2.789472875396219,-18.18412037368015,12.032461641825872,-9.247593875771958,-5.61637975428895,6.825632191188317,-22.62457740853002
-12.295464886211173,1.4758213691231958,11.250507141341128,-83.02044756921313,-2.5844372637753477,-16.058391974485726,9.53091086569594,-14.144803041980813,-4.89307620147144,5.694210681206442,-19.746087897629906
-14.289493056588112,1.0853572990218687,-0.5699659662089851,-81.1574278826495,-1.2417095160007414,-14.682637266934794,5.604159555077405,-15.852816839367268,-3.345759746783144,1.615528197971839,-17.625101211572517
-16.44721340286005,-0.3391101246360684,-14.813343484259835,-78.73118746009966,0.49141333225474537,-14.177954744705083,2.6204739373057535,-14.119443485877557,-2.2917428703953977,-3.2040593749647317,-17.222551303888107
-17.118157268402708,-1.8801379318662192,-21.5442266751201,-77.17516760301181,1.6612026993376505,-14.453116660803534,1.9880869401810122,-10.870962255562866,-1.452416192806016,-6.297437885485289,-17.784722205789777
-16.21656151931649,-2.521078825665718,-16.039964729320385,-76.70277472099269,1.9444025105296605,-15.225086735700565,3.5869322397059937,-8.484030577966205,0.622122454270067,-6.337092501471429,-17.968856084052646
-15.147572778180407,-1.5776038105069112,-2.6900176191754355,-76.44212933893587,1.8360642036620334,-15.966642059511258,6.2431975655827285,-7.649783420366246,4.6921687961054435,-3.8571740716709226,-17.338613204709223
-15.470402903422784,0.7093594524831488,8.627445664863725,-75.61646732128497,2.040339580469932,-16.072463389261003,8.561403682466759,-6.859463933948922,9.519366269559395,-0.8183776204244353,-16.662721344865417
-17.619335511742083,2.960643855469339,10.62108648821653,-74.5413024033841,2.713752906001505,-15.335790369357838,9.511465842342934,-3.9681988487168915,12.50071816339426,0.8559848880820748,-16.854485147772603
-20.624122136544667,3.476224047494597,4.100939204854761,-74.30129844301818,3.320916262962358,-14.307299846647727,8.777757511225253,1.5702298936643801,11.761635303836442,0.7563191429992521,-17.80479690134293
-22.883293130062032,1.6516521111402973,-3.615286562677307,-75.50447528880977,3.2440532972366185,-14.021752497666837,6.894604192808069,7.884252986892346,7.766254965217428,0.24512971861538957,-18.37078779891641
-23.20504822363504,-1.2428590579113,-5.636578489279956,-77.4079520179956,2.4401251218903712,-15.088281817373213,5.135075337006082,12.029171042600112,3.017083432610223,1.1844763664719773,-17.49447757745742
-21.410945356015905,-2.8366762386750715,-1.3478944385613691,-78.39621822079292,1.4685074576180521,-16.98712466559762,4.71623068520319,12.273491603072394,0.15500153153929652,4.061496537748578,-15.309767793672137
-18.30513627204262,-1.6277129399105377,3.9397635810454057,-77.52073650597086,0.9014296868932055,-18.264068697939607,5.632828165425741,9.296552032094574,0.08765576990704282,7.217004007584218,-13.110293241942012
-15.176110867725804,1.5746240711657755,4.669345957934295,-75.63436424404834,0.7488034603130133,-17.578553994357076,6.2528357708289715,5.2729367689335,1.6531348243975028,8.034235971398495,-12.315107526910964
-13.223017266837878,4.226654744895505,0.279889446935335,-74.88880404623188,0.5174719054917096,-14.674073889368866,4.438872619930454,1.8371970921384682,2.853245865110479,5.23975650488761,-13.388554754852853
-13.05732361214818,4.292239162709688,-4.848237322042019,-76.83688851325229,-0.15027194727758086,-10.592725512524671,-0.3729102010056482,-0.9898126387721469,2.4106904968176446,0.23772167745058959,-15.592538835298487
-14.329133265674699,2.1122906342957037,-6.175882248909981,-80.78001425562397,-0.9397745322818709,-7.0361382192915745,-6.110950123001263,-4.122129666039216,0.47303628798970143,-3.7641846912571877,-17.610214689917406
-15.781610680546981,0.15527511551667317,-3.4702898335869232,-83.92642154936362,-1.080389095661556,-5.429860283098801,-9.360614663432917,-7.620523984955702,-1.7657556882706862,-4.211860407044462,-18.380045624897324
-15.962283634853428,0.841008645888941,-0.5512916976978119,-83.40603322639811,-0.16556321370884086,-6.3576131722537825,-8.261427980432021,-9.980388185296652,-2.9636917155322995,-1.1821777713019292,-17.51490746967167
-14.212643233690425,4.429310988745122,-0.8241680351075416,-78.6527992310986,1.2503003169909293,-9.428787302009766,-4.30698849269842,-9.327394766443653,-2.383754356315331,2.8285278460898153,-15.173436646252352
-11.288643289163844,8.906831692094066,-3.58094390290087,-72.12179438804172,1.968425659405319,-13.379218343894223,-1.1454901453224684,-5.531759287543419,-0.21061784203425749,4.9920876020452924,-11.733304143932305
-8.928701443710658,11.88033816945737,-4.831740580557248,-67.63496978984733,1.1980799514024292,-16.449663239548137,-1.3014694709856074,-1.0162850651643498,2.5946038816918047,4.2438252883238565,-7.64761395853023
-8.504022188951543,12.638145819023176,-1.826550331241335,-67.5539648523906,-0.5881089861504245,-17.09400219384125,-3.9088334982895505,0.7601617305567832,4.763776665159558,1.6738034991717814,-3.508458272090043
-9.732717569480362,12.550577578139272,3.51159383903739,-71.02431679080763,-1.882952340243279,-14.863075109197666,-5.762719395360185,-1.9662070508848801,5.449139416681268,-0.8347173511086616,-0.11491176785507307
-10.597999606641476,13.600443326975618,5.9849725331039725,-74.72538615164343,-1.3624739216327018,-10.809599913622389,-4.6710123919467375,-7.736174614501537,4.79167913543756,-2.205370156158129,1.6353353839544553
-8.802210684300942,16.591117768662357,2.1440116313326953,-75.44216819784862,0.9291550061848708,-6.912666320948068,-1.7285894758563765,-12.9129262411556,3.8205430978571187,-2.5442961961335753,1.147531916405482
-3.6953843072676413,20.626972934210187,-6.036010083702808,-72.41837535791258,3.5152410273673036,-4.757776534457402,-0.09018739702136758,-14.476736320006326,3.5919912323996868,-2.2906376644696658,-1.3189977332142004
2.911810076624948,24.137728731271476,-12.446701588497362,-67.7031981894282,4.669677360287266,-4.4810990359346965,-1.5145806225548117,-12.13067223813094,4.191503043275638,-1.3472183542565643,-4.428891137962085
7.901269123292508,26.227514083862694,-11.934114126516782,-64.31577365814027,3.823342705958466,-4.900286375810669,-4.287623575509777,-8.118944886299445,4.549683250284546,0.7657176675270688,-6.267890390877968
9.147362920561408,27.132484017971272,-4.50238092280376,-63.91143359265276,1.9103577346494558,-4.7541836454156,-4.840836590070606,-5.1532508300600774,3.3224440359835707,3.9228505927708515,-5.473398979076988
7.1141327297787615,27.644028732225067,5.177061707451788,-65.82228966181374,0.3613483678136413,-3.8330305496404127,-1.4871675043498267,-4.4800260988728855,0.16974974305427315,6.824076536376269,-2.359538421380312
4.350070400016165,28.324700364946256,12.009382665451795,-67.99803938039729,-0.26670210983508635,-2.9626379294661316,3.562556948266616,-5.460811790597444,-3.736596219963068,7.662409541365715,0.9926780701963089
3.258863792416326,29.41251504479174,14.304914016428306,-68.75518249099436,-0.6530752900252541,-2.836631788833838,6.138465911598771,-6.66061802570449,-6.507002339653263,5.58874498800467,2.108155898822745
4.121369451195156,31.151656592385635,13.920738167709576,-67.81474142867421,-1.7283705601272832,-2.9822614044537143,4.217044615755606,-7.113225555938713,-6.900539189261093,1.6263372555224365,0.06388921612335108
5.174715769165943,33.83682244642493,13.32572014534577,-65.90928186325871,-3.3614031122896435,-2.005664996303767,0.08994033510250465,-6.644461464141891,-5.136419082102488,-1.8875284272924473,-3.5639721668107107
4.655913837332709,37.415000344823504,12.936408035839452,-63.72855040481794,-4.144836023970272,1.0067325683358188,-1.6058422012020102,-5.49847173193219,-2.50575008237261,-2.993501054277415,-5.6704476752313955
2.8110946947498134,41.09875689601803,11.316327093563675,-61.43385613434283,-2.669525639999121,5.367378684229963,1.8133207236867717,-3.8440886981353612,-0.2929395248730271,-1.4659701352927956,-4.004793878596772
1.9051471868895367,43.69772512150571,7.588020434684194,-59.04611058871289,0.8627461536666633,9.133575683643002,8.638763217615816,-1.7669138412750414,1.000059838891278,1.170487316207635,1.0062175032947343
4.125033433776707,44.64867581301725,3.171010440097903,-57.055780479364216,4.377433614180809,10.741957012641794,14.347481920423586,0.5486716453592311,1.5592517718265926,2.9363033064286252,6.51998905508623
9.307095043769923,44.75409392849572,0.8737447039779767,-56.390825718929676,5.453851472613943,10.395018215889337,15.48339909637457,2.815836639497731,1.680299741841363,2.856597840308974,9.448995166139305
14.695336493161388,45.68293660859612,2.339850122880865,-57.616720413154255,3.395630634774605,9.796505514374712,12.19515561101623,4.8387099481743485,1.4605196130027776,1.434827683193918,8.80853221049394
17.091119984993707,48.41264813614723,6.456823822583882,-60.17418687865866,-0.07758294632485452,10.526420193797282,7.384646472309093,6.429352333220647,0.9675577810050351,-0.03871080830130169,6.224944984913542
15.410721603937727,52.109036967289626,10.25452807941026,-62.562430927460824,-2.245689139750481,12.533199716190154,3.863462988217893,7.048728508371333,0.5271533937114494,-0.6113887835104053,4.346835166159752
11.415059126560926,54.55501678909351,11.310722003854666,-63.434602778731346,-1.7239447968513057,14.266184284556374,2.4764215947794317,5.828759718679878,0.5400059197115739,-0.2827126268332636,4.717854378924601
8.02793609484949,53.95968572680886,9.518341441766406,-62.60003546311188,0.4251020807703392,14.269136807784063,2.5783391929594646,2.192611789902365,0.9352393756616992,0.25673663202018715,6.933405180835207
6.977842335631731,50.54966388586708,6.657908332452763,-61.008369044123626,1.7814294355469964,12.683854266120559,3.718384562965716,-3.3264136005182423,0.9260051722167925,0.42317914235748233,9.580062223952833
7.8596121980557125,46.52934733532951,4.496863319971185,-59.788373688574836,0.9021988103759229,11.199780116713594,6.1847611530320385,-8.8841603021862,-0.5113290665429127,0.21017401035022287,11.79631914161825
9.225157080474492,44.456226631578794,3.2109303222484784,-59.273432719746296,-1.3043350725974174,11.43091848939021,9.95484006345863,-12.343912779198737,-3.6475055464247492,0.005754427649473648,13.894146357953165
10.31877309432002,45.51462675621669,1.6108578947622387,-58.94201653371335,-2.4614991383955886,13.310836221446706,13.494940422716782,-12.797800183115598,-7.3870341116149625,0.018640253623127823,16.531708741283527
11.585726947758818,49.03821705716948,-1.341889264011714,-58.26893823011559,-1.021378347867385,15.103366023532278,14.228922592875461,-11.309440033674813,-9.721081230757074,-0.07452763489492886,19.47323989675732
13.712986148624548,53.31721383172488,-5.139143004925191,-57.471709316848305,2.1566014220600485,15.046578195888676,10.525096383425455,-9.982161402936692,-9.067562725312586,-0.8581973192101158,21.283890288187408
16.451368969814624,56.799251909165335,-7.773942478135768,-57.31523107467795,4.445341832646825,13.142592911819353,3.3809081508372225,-10.170443889341785,-5.509049690868855,-2.5170609265595356,20.450980514647142
18.67007921366995,58.559575561534494,-7.241877378843016,-58.199857510098155,3.7524224692279624,11.343476026754795,-3.9627966673133446,-11.325187113630896,-0.8403465298703887,-4.445827040527559,16.91096012781056
19.525075556567355,58.12794244559896,-3.3122862619336715,-59.52895030624251,0.3780604170600481,11.816348141870293,-8.308147870112203,-11.588857593018428,2.6487728049213546,-5.595843178312372,12.521370023006241
19.39496160965923,55.36094558553404,1.8502768054553607,-60.0486759490457,-3.249502645783135,14.86771047905112,-8.677916414572644,-9.514525614331879,3.67788266014726,-5.297037465378329,9.979098880969698
19.458330822837567,50.72760569978033,4.7970593181947985,-58.963828122010966,-4.6815341976763305,18.40580961241311,-6.550296911675284,-5.497373331428766,2.6444988130843665,-3.786338425089482,10.964778285855886
20.40417115236869,45.579813885246494,3.1829807880037038,-56.63986109506063,-3.535235628445564,19.681046004418373,-4.21812874210318,-1.6556377987123763,0.9513753807511303,-1.948446129464939,14.965412312265904
21.691241837884235,41.65758928004731,-2.2690803323341857,-54.19722178665393,-1.6672168149377509,17.756071307241854,-2.9806273419791762,-0.3221643534295803,-0.3202614317172757,-0.5829904943244586,19.724967548905276
22.202294633530855,40.07699870611884,-7.819121852862964,-52.41076438819729,-1.35329334170883,14.451267109625025,-2.642048851854232,-2.2819419498854376,-1.1720227556461038,0.13629660102997998,22.89283487528746
21.564045507551246,40.63597230166559,-9.04227350570287,-51.0627641164841,-3.1715983784152435,12.789677240204192,-2.4203584464983976,-6.064185795866938,-2.2462842628741644,0.41257989913620663,23.521303365707034
20.6683369257341,42.14582652568449,-4.02327956925312,-49.51219143665712,-5.471590565307143,14.31335980749068,-2.1371725215184956,-8.718592659507355,-3.7339493140940965,0.16774032087443969,22.386088921595203
20.66745367139485,43.44173119799324,4.999333802002379,-47.805441624866404,-5.799945642224742,17.735301163756418,-2.3952533615239653,-7.608063866919916,-4.822930058712453,-1.1326708305339777,21.05339976734859
21.547035603984845,44.090806383958096,12.914902555389794,-47.055223171052305,-3.0578308485322365,20.158249938532826,-3.710026238994941,-2.1500419480075412,-4.368412178961085,-3.842722453372006,20.579004527267198
22.02764592551931,44.17041287959506,15.21816433885142,-48.381911840410766,1.4535072229425368,19.780210401299612,-5.54086080713047,5.64561900626607,-2.1597702913252093,-7.248851994236171,21.015923721813863
20.94001855975097,43.65548577626163,11.149628395336684,-51.307570185307284,4.992259173453624,17.48040332383585,-6.434086915772138,12.246125775651976,0.5473923951557318,-9.572509065651396,21.798466769112302
18.721965816470902,42.275550063234704,4.133724268257477,-53.385310659357216,5.450581904930765,15.798034188422704,-5.2806308574084335,14.80946725324082,1.9037573238652017,-9.191466366696497,22.462231531610637
17.281783233499443,40.10713796397003,-0.8386068295269089,-51.876527144877855,2.878276603011299,16.364488203811526,-2.5577754695108537,12.993839080550584,1.0376991734485028,-6.121125199481269,22.87149301432929
18.060433051082676,38.1147531194127,-0.7950635184569945,-46.23185442712834,-0.6307180151741435,18.323335431943423,-0.2995633240357587,8.93007993329401,-1.1261957824092574,-2.2641440840446014,22.88280887628877
20.209606022394645,37.722263143435875,3.354455684807097,-39.13668879420932,-2.507599096998127,19.28053508989639,-0.5912547564984476,5.369252111775648,-2.665688943560615,0.010842182460315097,21.959381971552773
20.970254139361607,39.677336895942105,7.885933165012433,-34.863779102337645,-1.5138596532513264,17.798567116139942,-3.7127699903224816,3.57354403121665,-2.3767071242387217,-0.2014101976650442,19.416256332580527
18.228987939493337,43.34826289148643,9.117204206647456,-36.06655842290274,1.4954155817983423,14.818518458532836,-7.572929915870908,2.593576466134358,-0.8034978881830797,-1.6769513118387056,15.286252371057337
12.888227197742735,47.24555771387115,5.669273457502473,-41.60170531561079,4.248148452214516,12.58985729422624,-9.18860578304779,0.6235312361516652,0.3685059825421053,-2.3248093690171125,10.850317345601857
8.562162641684104,50.25944270090752,-1.1215847933743905,-47.37996280119046,4.69331475247783,12.229994225155206,-7.179965974048688,-2.9368196349995372,-0.09696357263501737,-1.1007173110309856,8.162330235815862
8.505133645092965,52.2176984101131,-8.362262407208773,-49.56583115899284,2.449134759583524,12.66636686300806,-3.0501468177387387,-6.752226732726841,-1.913399072336651,1.1580211469327502,8.743235924911918
12.473020055905979,53.352464746225635,-13.18380773091754,-47.39969932880125,-0.9049208970819658,12.103123697021775,0.004815871837921537,-8.747690534512651,-3.6738403693424253,2.701590126981457,12.39781703503048
16.617497457075864,53.382107965370594,-13.880312763627444,-43.32639265341203,-2.915571640209634,10.451676480121087,-0.12437355544016637,-7.9416972463438,-4.172382375808043,2.5999317612768293,17.24714978062861
16.77765736207555,51.62318618019282,-10.522675891070708,-40.5003002513335,-2.0460674024717713,9.940894642809369,-2.5820662296447336,-5.011867570123039,-3.3876926881528315,1.4175470767931584,20.91442768870149
12.291717074051473,48.15755578608128,-5.039066814906848,-39.99976943686228,1.0893330768704204,12.943912452714684,-4.300891251965752,-1.2215915920777372,-2.2360279040101263,0.335988474147753,21.905858878411586
6.739485697943955,44.70843323502662,-0.5027003825475838,-40.232780827949,4.100168829965202,19.129711537610188,-2.8730838209618605,2.6886693298141786,-1.5513242590959049,-0.11686063155862264,20.148081600966286
4.7093489019305546,43.78226540382478,0.560133570225958,-38.868356205271525,4.557995767245622,24.899818658311375,1.1087305200352437,6.363013497731275,-1.3953437790317984,-0.3263572826369513,16.48962895452382
7.510462959331802,46.454480127091074,-1.9614148616254434,-35.351010258294686,1.8625235132845936,26.030392593805658,4.502699092346213,8.792108797078296,-1.2673048806766385,-0.7308989300531299,12.000018684012659
11.832463020788488,50.97615377143396,-5.311261091747458,-31.566775847712336,-2.264391207257156,21.370053298649438,4.518298867850362,8.124523420801905,-0.8188635385996048,-1.0474498564787025,7.730806021156797
12.811171839043482,53.89218493140716,-5.711129635808476,-30.125112118257057,-5.063465511795583,14.007305589189288,1.3447627101039532,3.260112409816963,-0.21525420836971643,-0.6311865013678968,4.833406475395636
8.733466181077144,52.892285950999025,-1.5415936409857813,-31.882076475555195,-4.784035916407719,8.84811202813865,-1.9885009403817149,-4.059933396758684,0.20865550987239523,0.42049037602388906,4.366122139704914
2.879055793738541,48.80604653343029,4.950027100684222,-34.99360423474381,-1.8660814124833989,8.670973224499821,-2.2970894147240912,-9.3614073099808,0.461163617781162,0.9501444384468831,6.570127980452409
0.695242601857271,44.788349817595524,9.327485869560883,-36.407069511398916,1.5209978284037486,12.108125655863324,1.0172676663428009,-8.502492802077558,0.9267694471984989,-0.14335093696297418,10.211433407069254
4.778029472349006,43.42956681150195,8.79167427718631,-34.41853701745843,3.091755771080594,15.124761314963155,5.6937041173592675,-1.4002415677136621,1.9154519116781412,-2.4176486628931215,12.91539395166721
12.239952114652809,44.59402316820746,4.801843600804654,-30.15319644117454,1.8850175187753595,14.472400796033158,8.828854410955616,7.295287562559463,3.1895354090244075,-3.842137636686321,12.666449895537605
16.962306673355478,45.96073119673986,1.7705963567494347,-26.652870947276668,-1.407749785914427,10.043177821584942,9.251158975900328,11.702665723249744,4.039049981209684,-2.605201080044013,9.293082116792695
14.707676536535406,45.54295312140792,2.8516599429969407,-26.4229703834473,-5.098820146762911,4.4000558980493185,7.860426498693383,9.518277063437651,3.8205804345662417,0.9296616580500954,4.554675844426102
6.515565151599185,43.52367122513918,6.710568265383896,-29.49331411710682,-7.460866468795396,0.47195738356743866,6.035240304444634,3.936817963916438,2.4789134270708235,4.276097410297007,0.6953944095464308
-2.422994798292293,41.655701534146054,8.731559307701431,-33.460717060639425,-7.4647993081034185,-0.4576877921698834,4.0540426893657555,0.8600911970161884,0.5965852174478452,5.062867416247617,-1.3025194961067301
-7.117621051246795,41.085581506394846,5.628810422854557,-35.40389472774983,-5.2123046839813085,0.928404546586389,1.2512018746594502,3.9195546578324607,-1.0006379031535666,3.2901752232148525,-2.1381270901283305
-6.329964427753177,41.01195635973933,-1.1459445109711996,-34.065837856671294,-2.0397779980714423,3.0068215254231427,-2.570046680613765,11.591315444580513,-1.6855479436060976,1.2473486207898636,-2.9289188794666727
-2.3914199393473963,39.630358442323626,-6.659926951248892,-30.591889707192962,0.01290875545289083,4.414631156615089,-6.290000401583287,18.547619750699965,-1.2875781191833753,1.0823369361610569,-3.7146902225901526
1.7681857926874587,36.18165085324983,-7.397441068150602,-27.47940926523771,-0.5674894174977463,4.55602722708096,-8.313391880544296,19.80682825611691,-0.07608734327414046,2.530863948344658,-3.3743020652520634
5.079675150064697,31.91127637646919,-4.950772267942713,-26.66569042250952,-3.5018586874961515,3.4842651883055114,-8.152342080876352,14.018862098740486,1.4319961634970706,3.204238270871061,-1.0909337730314321
8.004100010942068,28.9717708234168,-4.49917702841116,-28.279080459828872,-6.593845876179552,1.6106118206023827,-6.962410875808485,3.779455530398684,2.7392797429187454,1.1619946017943814,2.16913497761296
10.324548459607435,28.412798299914613,-9.302131585200618,-30.80035981062219,-7.260322037284456,-0.46613001747898153,-6.3364081040712446,-6.490091612098693,3.529205724827207,-2.885995554415944,3.903384725784941
10.008396445194842,29.294077873989487,-16.73049182037864,-32.33249435559023,-4.704665056184162,-2.2070817859571057,-6.6486269671344616,-13.144524091643513,3.7410284304294485,-6.069715104272971,2.059296726160781
4.8028734177124575,29.65053406880109,-20.094409983482464,-31.90158395645163,-0.7662887294664436,-3.428445629967291,-6.800226906578195,-14.881275516207031,3.476674129353691,-6.113991876140852,-2.988769773262861
-4.89943795224225,28.24288836425543,-14.927683279640995,-29.88891519711411,1.5607870782586193,-4.446257208005278,-5.676345350718396,-12.974111760397802,2.838991043740707,-3.484439303054608,-8.449552273703693
-15.035651140764166,25.33748148076201,-3.6881179956207637,-27.551645295262492,0.8282096241663964,-5.836583261951186,-3.7222651132533633,-10.407015477496946,1.8707363647685427,-0.7393870400010081,-11.244751074482544
-20.280732776670547,21.993519545251935,5.7312172763480325,-26.097695168286975,-1.5461806275143142,-7.911802349648316,-2.7763632625376085,-9.886086088166115,0.6681033934396444,0.09258196538833863,-10.38786281989901
-18.08730556975693,18.965283280746075,6.656543565675385,-25.962030849140625,-2.7183621386383514,-10.35033409985404,-4.214250533811657,-11.85063123325229,-0.5033690674219822,-0.6966204200292989,-7.485106623865939
-10.82300729459645,16.369551726364108,-0.6059359163074438,-26.70827425706414,-1.26263628641998,-12.253610703074047,-7.2906689199959755,-13.834250390352734,-1.3232174290710035,-1.3001573635655306,-5.174906828711377
-4.038609165377212,14.221190060091379,-9.108267472397381,-27.454812970333485,1.383698930486891,-12.685985265824907,-9.579414494425182,-12.38527529760988,-1.7564922788441701,-0.7172791612278773,-5.005367045926828
-2.241802631713158,12.894781454042539,-11.18737498632994,-27.564643081128843,2.421153338744604,-11.313493645349839,-9.200787832640305,-6.435949799858312,-2.2318970872187847,0.10111441463829252,-6.637230234467434
-5.805104017376925,12.76720596074906,-4.564443987326222,-27.11219325639765,0.6984377283883729,-8.720090636496314,-6.682755569388225,0.8170739806625766,-3.3203880303729716,-0.4600350880061965,-8.770757313732314
-11.384195715522846,13.472998966118851,6.447121339851045,-26.91441513576673,-1.8818747036139336,-6.242775664630682,-4.588205901478512,3.973841387802801,-5.0925890821139,-2.5153505716490523,-10.534778216979674
-15.094943033291285,13.764123132947844,15.120533146048471,-27.93838196654115,-2.186309662124672,-5.211128882197626,-5.1423824265130555,0.2385592879419498,-6.739108856226225,-4.16516683621558,-11.949391086542043
-15.529699107566065,12.430101171333797,17.66412713540567,-30.350752838660004,0.8480106303536052,-6.133448616224198,-8.176779683293942,-7.421930851177343,-6.964906648062072,-3.3712970427359443,-13.37544765568001
-14.140875829302045,9.517081213751158,15.229311072815724,-32.96813946177883,4.805835586202548,-8.32435057478098,-11.224124683164188,-12.192418354875354,-5.020717462204901,-0.2718249814082776,-14.851172843649287
-13.261451082892485,6.62613983918051,11.773836833079574,-33.69496186697535,5.9494096389503985,-10.421089913124565,-11.74395026719454,-9.252370929332296,-1.4671109149347572,2.5861443569805607,-16.131290778272263
-13.905081768835457,5.833759563513567,10.44184072003332,-30.928202891350757,2.9247019308437894,-11.479918664372017,-9.294767381374367,-0.30727197672025763,2.0750748990810552,2.5374628392735668,-17.17077148152846
-15.301175844724318,7.996140453892746,11.596480749687203,-25.088766467010082,-1.679169845006372,-11.738376798357056,-5.684409844765959,7.746101081154738,4.070365334921491,-0.6174411652272442,-18.20335909288802
-16.167042457376684,11.818504350959614,13.471953810770096,-18.92027311627477,-3.5611037568942088,-12.293436208908656,-3.151066002010844,9.125013052586159,4.206127462788855,-4.305749787234149,-19.27189464584299
-16.15426114063961,14.534182625118198,14.048007983883625,-15.95145594963672,-0.7530177687342374,-13.913539801022477,-2.3990539527695987,4.483159722765611,3.4813754719250687,-5.499911503592798,-19.82625347021279
-16.059150929487892,13.817611715826533,12.515155567320747,-17.95806572498627,4.4378751117753765,-16.00486062763282,-2.269240582286264,-0.012939888144824163,3.188896463508893,-3.4269062489328252,-19.17833931282839
-16.848631047972734,9.538825841839929,9.494671597579908,-23.411132185385362,7.470207014463051,-16.976706816328168,-1.159416255505917,1.0479714886098264,3.6817073565719367,-0.08517380165716616,-17.52502565342631
-18.580680136895133,4.077334130531046,6.445909455075007,-28.271941074104646,5.637104139941004,-15.761587197130801,1.3800244678981226,6.792107175063487,4.023064819483679,1.727656452223061,-16.237390662543305
-20.303326548825538,0.876094337780434,4.713724399967564,-28.84503563432114,0.3673104892833552,-13.078106746708622,4.296275391941138,10.75118203499714,2.8840750774470765,0.848388809236752,-16.736168986224104
-20.897682672984697,2.11375659487922,4.574706124202179,-24.56639021687087,-4.223747265568184,-11.075970924374728,6.1422260255243994,7.279312571175777,-0.11866360942718676,-1.493286207111462,-18.93396246034648
-19.968555148408527,7.0384613521969035,4.9129613175050375,-18.424253406926255,-5.025169229261907,-11.50055153272478,6.436230680771972,-2.662439258620003,-3.825470353867592,-3.042792143260195,-20.89005044395118
-18.049624623302336,12.26971798821879,3.893017668127686,-14.64948708093586,-2.32981632605517,-14.118874982355198,5.928037473958533,-11.932158587357225,-6.27921331153476,-2.5113833433121986,-20.444597824454302
-16.068846683954987,13.996030904245396,0.505702609947341,-15.482779668991025,0.9596567062841533,-16.994703591035993,5.7023195846898975,-13.415078231180873,-6.226218682018013,-0.3723031310642605,-17.350464884514953
-14.6414684496836,10.646503222961506,-4.145976296896659,-19.61472811805983,2.2134641182957404,-18.338970781505207,6.106734651379078,-6.15368398567359,-4.070677757110368,1.9010973463422591,-13.75840138737858
-13.738625907355232,4.046968571594811,-7.314655232068684,-23.518036843057853,1.1497242554790466,-17.997411404169334,6.526691411008748,4.182715145345856,-1.546466575402576,3.142497926789673,-12.323134260559037
-12.866972231436353,-1.9337653363608114,-6.805717667193683,-24.44682285272438,-0.54963630149729,-17.192200643130747,6.142460877178111,10.563701594955212,-0.33572470784386144,3.13668403750524,-13.636768340160252
-11.578756881048767,-4.277562936593863,-3.0579999981375723,-22.452756345893913,-1.2307015400109504,-16.816998793296733,4.763104504474887,10.297902232716515,-0.8154655062727113,2.295686358756684,-15.585575813719302
-10.052600343679924,-2.994466671631524,1.0991744311826865,-19.780690340059994,-0.741817472943264,-16.311048913488634,2.9589953124740265,6.007720021750277,-1.8809931454351612,1.0815714600621247,-15.482678169322408
-9.17518323177993,-0.8502643992483072,2.795606072870482,-18.493659811418773,-0.14473368401876396,-14.487858336570216,1.5133793238060431,1.8288863194182066,-1.9480843575056037,-0.21058809994362993,-12.846123846016585
-9.987471160886535,-0.9420755932930069,1.596199494086855,-18.58508483359801,-0.2997586700498852,-11.473046459691545,0.8332130089139038,-0.6839953258951283,-0.2644203536363945,-1.3272945567289172,-9.942810309807108
-12.689009789849083,-4.213145398181382,-0.42176235250355765,-18.328496501007358,-0.9702121604633739,-9.43737605564737,0.9548114457467707,-2.8416048615484435,2.4677490792563823,-1.8704778058583886,-9.551865251015798
-16.017819495142405,-9.01058554566695,-1.015425163419709,-16.38706333086343,-1.1984750381281395,-10.87255291519173,1.865592471826384,-5.647054673460519,4.636481195761127,-1.4536387329186629,-12.170844172302237
-17.81631562771696,-12.899863985291214,-0.1897139185396124,-13.467436591561135,-0.35060214514129584,-15.941576493934674,3.5801062544999267,-7.306995030071308,4.966908636828025,-0.10047024880197641,-15.553138971776875
-16.6621507188471,-14.828128009929916,-0.12756282249227002,-11.815699113315913,1.2566942694458043,-21.57238793574734,5.688712456801359,-4.575119973364138,3.4474541709810644,1.5204965526876797,-17.05254088776035
-13.368061066919509,-15.765924587839251,-2.7262966576577634,-13.100482343245671,2.6990670259815053,-23.5977697191339,6.963306578200854,3.1662782344210436,1.3225200029993156,2.333495333580986,-16.227022835095397
-10.790383877153667,-17.40563068567805,-7.28258037686381,-16.77310966870909,3.2338499584449476,-20.244857770774683,5.827943965500867,11.74379604393592,0.144457507282226,1.5079174181214539,-14.991872999216584
-11.655108461264057,-20.36701476431285,-10.798817507014705,-20.476584120584878,2.785396403640034,-13.75637559138471,1.654013626479979,14.825027343742263,0.6059103020314344,-0.9165154469118473,-15.198524110647401
-16.087343283284902,-23.679842733164364,-10.701740554069085,-22.074573193499575,1.8466686028235382,-8.624763464364571,-4.212306343791147,9.49714175207609,1.9803826602104255,-3.8394808483100276,-16.424905698757655
-21.075285357996165,-25.89929849301629,-7.1493235934844215,-21.313791421666217,1.0647246530557748,-7.96986127995415,-8.849010009875332,-0.45520193586063074,2.681330774769015,-5.576596585239507,-16.49870328920928
-22.692278267999185,-26.667534051524658,-2.69266989824527,-19.51433771196761,0.8817982365439507,-11.25772424695106,-9.728931840386737,-7.145509711083639,1.482832135358294,-4.828132309494713,-14.172624152613242
-19.347569420976274,-27.07413765367155,0.023228028882196217,-17.869531983757412,1.3577877561004372,-15.311761081763276,-6.7063881177442894,-5.271294401278007,-1.4285711872797977,-1.6083791265734753,-10.873972974214631
-13.11067311168121,-28.527964588584112,0.2924993095203037,-16.248968490513445,2.1434558513148048,-17.307282790938267,-2.259450668016333,3.035877959184376,-4.4170098450071515,2.569764476904611,-9.407884497325316
-7.821978313496302,-31.41069224443254,-0.7326961956251437,-13.792428618179951,2.6035687251779227,-16.863654754948787,0.3566402862175274,9.73077969684818,-5.492680538890665,5.477616499420805,-10.77824421947226
-5.684024532151289,-34.69831876415543,-1.7358977568091298,-10.526933233308714,2.184855928566002,-15.442879045898241,-0.3977930321582217,7.824300219617863,-3.810962236293049,5.538100479427946,-12.613721486206089
-5.6474911616058865,-37.04409012336533,-2.3637799337479075,-8.0527055259584,0.8798324270911644,-14.157269550260295,-3.3730298888473036,-2.43545470049809,-0.45349640279514847,2.8299213655165145,-11.316429938096503
-5.0439126185890215,-38.12819847961329,-2.798843215790207,-8.284688548497154,-0.6923988439206095,-12.509511674246319,-6.02832774428764,-13.66010255478059,2.2172850367309413,-0.9765555811896882,-5.882825786688866
-2.769198816342782,-38.95282100421903,-2.850511914313169,-11.336154460891448,-1.709902800498957,-9.244520904366345,-6.721791174385981,-17.64606534022098,2.2244408408954266,-3.6733247820620507,0.6268485376921019
-0.744897368389936,-40.789474980711155,-2.026775525977995,-14.849317736336506,-1.797099818538324,-4.264602237895308,-5.929571090275297,-12.22998434873074,-0.5169290537591498,-3.9412941741510936,3.7528173553783835
-1.9394648458769086,-43.82695096368603,-0.7148691522252777,-15.756503380179861,-1.2652669072101719,0.6256707533231691,-5.375239574562891,-2.5962807447339395,-4.047840781371727,-2.1414145385513406,2.0172487638992447
-6.959067179714891,-46.800706025477645,-0.7701553688030096,-13.035323566564589,-0.6583186780925284,3.109211654963505,-6.1718304174334015,3.798371556280278,-5.756935734119267,0.07167038364347561,-1.5334349170495316
-12.707784133298961,-48.05907130300892,-4.112474510308207,-8.811155609176442,-0.12319200316223022,2.448586837723004,-7.784300800940097,3.7591864757659574,-4.233615252632381,0.965968051801248,-2.2353571836294304
-14.675859300583445,-47.105955471574575,-10.383473323735672,-6.577039488076833,0.6582881245952369,0.09725159751671564,-8.658382557210828,0.2974641085363223,-0.24017209595423716,-0.079689940591681,1.5635754484673365
-10.883458971396752,-45.13503250755306,-16.127827791351248,-8.084774254747332,1.829956392814399,-1.762925687279224,-7.684050246101436,-1.285567046423843,3.874704070964339,-2.218688608996616,6.814876491635628
-3.654481162514549,-44.030546936270454,-17.087803001743303,-11.75758862406515,2.7320636121526345,-2.225000030302759,-4.983262257115664,1.05173190869268,5.816436154881888,-3.8018948417558294,8.711000609997713
2.5158191706899107,-44.665325622948494,-11.935793061327235,-14.114730072918396,2.2226162966191074,-2.1742816383883214,-1.4593824359293945,4.586915767801273,4.83697141061399,-3.577402755454014,5.313074202883596
4.97812038234563,-46.07555598775791,-3.942998443016161,-12.87464116976928,-0.16466510571309118,-2.8969078187424735,2.144930906479284,5.4692637929574115,2.0614132449660048,-1.5711089923177646,-0.6552504381910631
4.884482502024103,-46.33903270992894,1.4251939004232335,-8.86131325733136,-3.336811478472023,-4.325047118047983,5.610163830615623,3.279054087374186,-0.3976196012403173,0.9388195748493012,-4.468814953102844
5.344284632701911,-44.35086642080702,1.0919354147724627,-5.048509419182661,-5.119246061405035,-4.9373640364604165,8.76217986813612,1.560264279620935,-0.7849762358361609,2.417369980242291,-3.7534856355811765
7.723002936410685,-40.924841401848596,-2.986126650852358,-3.756093913646467,-3.9634535208207136,-3.3845126628923587,11.028312543569191,3.691083864770417,1.3197417153092883,2.227635548620336,-0.22795928528777099
9.876454275670058,-38.09473312588857,-5.659595044538327,-4.7226180089515495,-0.41503537280758196,-0.06550482390576695,11.698850771469239,8.696200864906618,4.8037731101218135,1.01871067037922,2.547154476292884
8.267886575554195,-37.324010230570266,-3.306960114757643,-5.77114619124832,3.1663709088920653,3.1067094707089877,10.775904110309533,11.687839608123934,7.646729292136613,0.05577556749350743,2.8174783700208215
1.974992123947445,-38.30642105133031,2.8702528802372624,-5.115384420269482,4.538869400579079,4.542585836667277,9.272155504501788,8.900820904790862,8.015717703698424,0.02718894816509132,2.020005431418207
-5.3945021563751725,-39.521914839945595,8.081022974227517,-2.9631300657916704,3.437569463438794,4.431578954020408,8.49125465518398,2.1728180121663114,5.3180097536222135,0.38786657545139036,2.8118881472637063
-8.092280305050902,-39.976827242656,8.386426522250403,-0.9392060792159214,1.665374586906623,4.306522935000716,8.917633581537196,-2.1923945072918087,0.6561005444407626,-0.12756252993394923,6.124043729064896
-3.05346117325297,-40.32080232255515,4.15407397945258,-0.064490478891301,1.3135518531677501,5.164325990937799,9.815260939616621,0.5599292047169138,-3.7457111367085916,-2.1992546771176364,10.2652550293493
7.052320835261295,-42.06002644743677,-0.6158476333703433,0.4221938513443533,2.8457710597851564,6.392447094420927,10.013913288505165,8.4245857993464,-5.8923352849105814,-5.03721184586245,12.737920511875085
15.496805494992511,-45.61858352804743,-2.2853232120065616,2.1755490506222834,4.763579880277181,6.659271883695899,9.133259281628227,13.80350150305934,-5.28177097280335,-6.786368453033804,12.627966463919675
16.716638325458003,-49.284729913785014,-0.8399729783756753,5.730484536309223,5.107996115621116,5.793305972339832,7.951602629121842,10.294839727562822,-3.142882152144759,-6.001201288760065,11.199016797472169
10.801964104063167,-50.37869289343129,0.5986956779907477,9.586766573897496,3.293198504549505,5.4193042541558905,7.544748666381956,-1.2324277038154745,-1.3848861931421514,-2.956588000117721,10.285863921359597
3.4225738784874276,-47.709807206657985,-0.8395488319224911,11.45614539182623,0.5854836957153935,7.30981459546822,8.05154167565441,-13.155636817037589,-1.0935170645607515,0.40428350868257,10.405388431517395
1.1863810379295998,-43.03321620042276,-4.895208757187196,10.494165630290649,-1.1040314227421941,11.15576754159126,8.369030894483807,-17.739189107845306,-1.8108156316800526,1.9282844020418284,10.539235224075476
6.27333573102182,-39.88885809881191,-8.562507948872263,8.31977651017468,-0.8635593657303916,14.275382682154378,7.077515727790452,-13.669232783041831,-2.1774609735646826,0.9111722652148734,9.578135294534889
14.77993246217087,-40.71437624804423,-9.076448967687071,7.617166336496698,0.6349112405124732,13.922843293306595,3.7375598312178653,-6.616015994596749,-1.2949225014267387,-1.4369039162049113,7.834790718074362
20.110938361238397,-44.86262740156309,-6.355945900250484,9.641079367494338,1.919123028505086,10.12743397049643,-0.6373907326160531,-3.4973232412589415,0.4587121335458162,-3.07630256541116,7.039348334271759
18.506844171196043,-49.311600010311196,-2.6642711125376177,13.04656430248749,2.0269772296816324,6.04254302599678,-4.358886628785879,-6.1385489274566885,1.7922580781242887,-2.8077182413700816,8.855088054070796
12.070990499438391,-51.35801823791232,-0.3138427625388167,15.21036678091571,1.138356446478891,5.211086402936172,-6.24492292115537,-10.24851885969042,1.641484447997857,-1.08929717100659,13.287573895733756
6.77268397577828,-50.73235448101808,0.12792432287047095,14.859423743945346,0.21491044397004433,8.38218163090042,-6.254671936787472,-10.154220331134859,-0.009468572074554427,0.5948870014586594,18.42919063613658
7.373452007540598,-49.250679058993256,-0.5273382303726689,13.393581897213913,0.20393456708923619,12.920042122670118,-5.1605886108124235,-4.290837002436392,-2.2757910723476025,1.1010824229508667,21.746510864806936
13.628325402181495,-48.708787120911595,-1.6153779178685852,13.646291897072736,1.4575132662693546,15.436299728963746,-3.747694893856225,3.647405631251525,-4.113035238554522,0.4510378049265214,21.826694448494127
20.91944240587784,-49.160566513880795,-3.2329274330735704,17.172421507506243,3.580113882588348,14.965072858501815,-2.3336898491308142,8.369393263217496,-4.87407292972999,-0.564430066791117,19.34791107336318
24.455455997626373,-49.29896431539173,-5.284161887788663,22.651427097020214,5.620804706745808,13.55612331756494,-0.9210245849539507,7.546497249582375,-4.42931361619037,-1.3975939777572124,16.62283510599605
23.144420047417192,-48.33843766510757,-6.47275876296818,26.91324489370195,6.464902049846656,13.876540731247259,0.4525508881563267,3.0552746708204013,-3.136488061117105,-2.2456656189091087,15.96997270578921
19.845954112111254,-47.24025278931698,-4.951411097888562,27.561994926409696,5.358617890253164,16.426842494548826,1.5752026688375547,-1.4846048305758093,-1.8201263391954723,-3.564175163935057,18.127692528258542
18.11032044961169,-47.926669489765914,-0.33833507304877497,24.89059956020986,2.4650521506835243,19.185170263401346,2.1510939369335547,-3.9334974363980026,-1.59459805377206,-5.250076011998266,21.8225894316469
18.755903877279348,-51.18298353024774,5.191877888319579,21.448020728671274,-1.0200078166536963,19.84688277990625,1.916759864846427,-4.589315252537932,-3.1827835656352774,-6.3761347611715085,24.670070402054847
19.5684202694563,-55.558016465510036,8.415409033247663,19.82791019575438,-3.460374362453755,18.125550297006654,0.6809447467160834,-4.679796227536881,-6.057141408744233,-5.879777745177561,24.819030123955898
18.092168444126152,-58.39853030500329,8.007142010612338,20.822642279937636,-3.8359746504562073,15.84106946481672,-1.634226512280649,-4.5653091040501215,-8.256021529753056,-3.574166957461083,22.187283742597643
14.449899511939645,-58.070991466444035,5.920351403885366,23.356831682328462,-2.4331813109505616,14.940309959513122,-4.731367655133559,-3.6579363863700527,-7.559072470668143,-0.4822811336389071,18.3427909058321
11.405540300894202,-55.37307142134627,5.396212995068973,25.906159479604714,-0.4990617254151512,15.64852416366234,-7.656908821500583,-1.6372931010433518,-3.4107478301770895,1.8867613040712725,15.2738402593054
11.672853716491282,-52.80868719323306,7.530924897202422,27.85072509818601,0.8716121539053071,16.64559031783979,-8.957811525261615,0.8613005040259256,2.1238513131047476,2.616522453491479,14.090019185733794
15.263672996791325,-52.48953530116277,10.013648907031067,29.594910860365232,1.5705370071416995,16.805368131263187,-7.519287265215018,2.9209675132152064,5.576751581625822,1.9153993015268136,14.625314601237564
19.396645926504604,-54.52172094707774,9.484170679349466,31.67069068069313,2.2612625785211007,16.35940364930331,-3.649163547943956,4.441688415047975,4.769446179089371,0.7187573634180444,15.9503177048094
20.9657907504726,-57.2111300049975,5.153544394185246,33.932284132310784,3.350756874240588,16.302206740192887,0.5547645829273713,6.239385694581932,0.6803464091144722,-0.17270276486529917,17.12444831135815
19.15063489407359,-58.6077902034838,-0.12479437921479275,35.672535739148046,4.248031837688649,16.94984946054361,2.278923848657154,8.793128613211698,-3.284311640726293,-0.5168918654553463,17.553844185622307
15.795214995310666,-57.85805459740287,-2.7516450485733004,36.35786289568422,3.8240617510023145,17.37773953650027,-0.032877973183909504,11.08951909546856,-4.139125547485056,-0.4281004315498337,16.94812464906945
13.514446062916136,-55.372661369882465,-2.2727391347260566,36.16548903987902,1.6431930837123996,16.465311069089708,-5.21788317542055,11.105308297702459,-1.7186477380384653,0.019111050724230805,15.355734196532211
13.569755078112745,-52.014870833710745,-2.0148530366643813,35.89147721714295,-1.2685518838558303,14.29723444611638,-9.842069910235278,7.617484491903676,1.5009669780865396,0.8062566804680117,13.339951264312832
15.379621766862119,-48.320362579124165,-5.413760068473345,36.362274562997115,-3.028391842235207,12.388690229443107,-10.530722068736512,1.6368308562720717,2.8855265012144238,1.7256432334921057,11.959588998433754
17.556306338597224,-44.53488736078692,-11.686807595605961,37.93328081976045,-2.3919079730341206,12.503586399682531,-6.467703605414517,-4.076682585044897,1.9850905497358382,2.2840679966494464,12.129104137560578
19.08104406794174,-41.120678394603424,-15.5696478876757,40.403761001440785,0.16752667556526402,15.226246435201801,-0.18693913893665526,-7.053463702155335,0.5784296177760613,2.0777248719154096,13.743730151454255
19.486891712207655,-38.934460420049234,-12.034203030150591,43.298196325954066,2.7778661117831946,19.590103100399723,4.242336417374873,-6.9549556654356515,0.6111277287062258,1.3536952428778513,15.529701293038283
18.421243605091554,-38.65770172282633,-1.6389910247615997,46.12848007478593,3.61675705597201,23.77938356673964,4.268925797354398,-5.4085426906741665,2.2487523817227633,1.0091051473003572,15.994310743416918
15.663881771780147,-39.93125177701608,8.846405013090191,48.484953080914515,2.202142384718552,25.95790627399625,0.7823276703327533,-4.174913026786096,3.9119523221057033,1.8631853070809075,14.822476422650395
11.76022994370482,-41.13823981155346,11.742736062674897,50.08021632809747,-0.5063380835339211,24.735376715585588,-2.6836719016438337,-3.4198448965742028,4.076006215828976,3.7464827222588744,13.333691427845329
8.312435261532638,-40.23073017952656,5.007269657226056,50.83456828542009,-3.0233737968647403,19.49398911883684,-2.799744422201421,-1.7603315494661071,2.8057984418738577,5.366744839984886,13.35350514026766
7.1150048824351995,-36.14621132618875,-5.846312214505257,50.989752548296245,-4.358508808307029,11.005911159198973,1.0334879200806455,1.974178399827757,1.4406812357516063,5.2937203629871465,15.363742230033147
8.564492582577689,-29.768109324990284,-12.216242141764848,51.09360948921608,-4.355063310767783,1.9459554562723067,6.413728447021278,7.094890226028038,1.0282225526699786,3.2325345510802856,17.778731320606333
11.027145164987582,-23.602457900624955,-9.3269778753554,51.780445628816416,-3.3781160479855923,-3.893440215447032,10.051227272478558,11.194300677035118,1.3121156792336421,0.44245446236543995,18.186633170717258
12.111057044299564,-20.357474798358105,0.5521150177743275,53.420623527478256,-1.919902769600421,-3.8017948525622023,10.345973256218112,11.990930541795592,1.36283889789933,-1.152245983333473,15.57614522002399
10.881871413666715,-21.30696792234226,10.87232688328968,55.876075414147685,-0.4895306804233206,1.688201481266919,8.267603601050896,9.222951402901678,1.019037696984018,-0.5395813722841967,11.426663213466021
8.89807730800864,-25.494957145110742,16.448262296574395,58.541685355453794,0.3665818861999788,8.746381826239428,6.133474595514976,4.91044868611036,1.2781868245119057,1.4345369555068253,8.615499524055014
8.89175820150517,-30.255515743539803,16.69692522751685,60.720797418289806,0.31448982106113377,12.816869705634993,5.5987651407135655,1.699522602112543,3.1031460772524877,2.6499384346097585,8.948065996262072
12.040825178383052,-32.71172875773722,14.396107495309332,62.08115839598827,-0.4000149473374712,12.002385283282692,6.6028236403741385,0.7523919098712266,5.940843615712314,1.4509761704121136,11.566829015540133
16.477547486033373,-31.36658706873954,12.1524899671072,62.904362479794486,-0.9636536787368136,8.333212660488252,7.949648522402477,1.1664813780267327,7.78481350921243,-1.8779417935632878,13.621042528254996
18.604261262971004,-26.88017418135202,10.336483942818665,63.88314327099916,-0.6090210370211957,5.666560629330375,8.5341066796361,1.1929655571598499,6.934416840773467,-5.115740296298864,12.706393690375014
16.030407526176834,-21.606819875615848,8.196225280419718,65.56334061929383,0.6177447348073901,6.120968198392417,7.963017161035026,-0.02567096120992929,3.742461786443963,-5.689113464657263,8.888781781868662
9.517724062146828,-18.206810004437607,5.944746349890579,67.77151179792617,1.7442117317811752,8.297647490136207,6.274170907090509,-1.747666536799203,0.4130276930022596,-2.6728128768979236,4.553273318789161
2.2050697004470114,-18.177748517256546,5.029875545953544,69.57986225876289,1.6865652105291984,8.861390996979914,3.478217823230339,-2.675523710645251,-0.937612294935855,2.3576380124079614,2.270961493922918
-3.003450836089063,-21.114018469907112,6.1858869072493174,70.00979970055053,0.3199229852896557,5.880857499790736,-0.35314685697591486,-2.535438229708454,-0.09607345876203333,6.378527634951354,2.593972989536629
-5.367608455904943,-25.109664088442173,7.74772453099102,68.9727651494945,-1.3045324852639946,0.7546732497294419,-4.588879903540265,-2.5912911729682886,1.4204359701871923,7.140882648694255,3.63234570298737
-5.951451693008417,-28.008950456992856,6.6964251469983855,67.65927532282173,-1.8765391810614733,-3.1170958615065114,-7.913055892482468,-4.517508886134749,2.193022558319134,4.883623792949472,2.7793066486902527
-5.754593495076216,-28.649225281566494,1.8557592604309967,67.95101049475647,-1.0276357396494302,-3.5499100302595608,-9.03992342575582,-8.694933203323792,2.2922447247888176,2.104078799385032,-0.9781830537424097
-4.583010266770055,-27.334766244984323,-4.178566914491208,71.1265718272598,0.37847980517940005,-1.6376814298430666,-7.793360049122546,-13.58381076862717,2.750517701779785,1.4814301013446483,-6.211256677770443
-1.9704564387876675,-25.343232130581104,-6.7031613361614015,76.77517637855114,1.1657287237753755,-0.694132272041208,-5.425122564151932,-16.829536937882832,3.8193441701431796,3.6343583292551163,-10.367450721107542
1.1407641828790847,-23.961918523790644,-2.965472415935497,82.80012706265963,1.0248580093856874,-3.0267693371596627,-3.6825275995251756,-17.079194922645303,4.192314010507413,6.596944683749219,-11.969644383857093
2.133614281324098,-23.725432604958165,5.034554461480699,86.6189183218454,0.6790899515205444,-7.638486639842249,-3.431682683182176,-14.796084462377378,2.2940587429317034,7.526373639806514,-11.74068391365294
-1.2370510716925454,-24.212355944169694,11.844010694706085,86.79233219420604,0.9247119023662909,-10.973975147433315,-4.120418189122411,-11.424858010647508,-1.6573095027593414,5.1764741662139535,-11.652046774942708
-8.321001416831958,-24.422196909538194,13.024534840286957,83.92135198088957,1.664464783694482,-10.052976087912555,-4.607274407871568,-7.9533068198321235,-5.203395832689896,1.028557488310464,-12.788320249321732
-15.159271275312861,-23.352381306980412,8.622908121962315,80.19910190928637,2.0177835365141386,-5.253322584623266,-4.467503300894405,-4.294866433505726,-5.649706373689911,-1.9200561430643535,-14.142926704710518
-17.181927353063863,-20.449846764027484,2.558426185849746,77.9662365526998,1.4289305609607539,-0.2488216124064806,-4.385278484490259,-0.025830616686228325,-2.6865654162851538,-1.6762622192260777,-13.669209429647015
-12.928576007335081,-15.930898499657172,-1.1150933072606222,78.27317833123907,0.4423295533807745,0.8740177341759825,-5.328372032744108,4.3479819209073725,1.0917293694777932,1.1660658677479683,-10.62863264094697
-5.50938732148156,-10.828343612196047,-1.4084715778182693,80.4999810761795,0.136326000848362,-3.1512588092813365,-7.32865082176776,7.277079161363227,2.5267781050355804,4.11807006499995,-6.911165144986752
-0.3723784619759787,-6.61897143681977,-0.21903090305242667,83.15138693370665,0.7806051703264523,-9.860291840583724,-9.21769058017459,7.432901563433084,0.8314666452893196,5.000373567183319,-5.837818019191797
-1.2037971045535696,-4.507959855147874,0.49733990734236944,85.15465485627287,1.258035967993556,-15.205816398217546,-9.545459091702433,5.152420273261974,-1.7469748363504731,3.6347159888975455,-9.277455195242606
-7.3493888627016535,-4.681581604370898,0.9806786079469036,86.61129232604154,0.18914679481894348,-16.767329124647425,-7.808891488323383,2.5091349110938577,-2.2283388131457667,1.6079642908437592,-15.70504211079541
-14.77747959736178,-6.139946954141092,3.0054188880185517,88.40753655305117,-2.2944306427891434,-15.356702690772138,-4.786243829406016,1.7822030400594695,0.1727478946047878,0.5600340648037581,-21.14313837559952
-19.421216766211913,-7.303590952433737,7.244122911500164,91.14127301567132,-4.112780750800955,-13.943364618619244,-1.7371800389725438,3.6611987037079103,3.4086492765520244,0.7804476593148469,-22.272695212319576
-19.96012148563272,-7.023528503852425,11.746104862906105,94.38453506625125,-2.9441717388585946,-14.9359424583533,0.6790910229632061,6.787336058411086,4.697042224549154,1.3263808095352547,-19.03022391768688
-18.068461855216107,-5.239399769776661,13.336640583409618,96.95062617596714,1.368221236075589,-18.239618704227308,2.5996159472181617,9.109787506956515,3.146083650970887,1.3359038348696788,-14.40209347194077
-16.4463072048285,-2.7587111169393097,10.659893177203248,97.90090927855853,6.1879669851264705,-21.595177959248225,4.161463985826572,9.54580623871784,0.2819671791171743,1.0164297634503483,-11.7307682685948
-16.677215581436098,-0.4134359347103924,5.866437488116192,97.31745260371972,8.110383087133432,-22.617748305417113,4.828612607486445,8.40908947804191,-1.765392328429428,1.2587397577214006,-11.982129701887494
-18.53107807079556,1.6601372143942115,3.0654862437734787,96.11388898586596,5.860489894646918,-20.733089916178052,3.7407506091866303,6.332287997976296,-2.2758308810783827,2.42280460130994,-13.400530301818062
-20.717553125490404,3.9206416468310454,4.847155876658071,95.1626949357935,1.3743109834840395,-17.4861548081721,0.859452674985409,3.149465079760132,-2.1247171184541056,3.6605883183796655,-13.553272178573126
-21.856878296283806,6.715382127333555,9.94252353144579,94.7225619688919,-1.9886189439052917,-15.250117965622362,-2.279803255517331,-1.6818860684528687,-2.271716136027811,3.6220925998606317,-11.684919440701469
-21.08595834875595,9.751246953392524,14.259537750520181,94.73176875673808,-2.3356658473885146,-15.48968750497825,-3.321948427491904,-7.45243583446198,-2.547841603137707,1.8140742831146601,-9.225305553735527
-18.299531594111457,12.284815201473698,14.255311071099722,95.48450952318908,-0.49365005695762765,-17.845024066827825,-0.9393380155659905,-11.261161767266731,-2.1810638394305446,-0.732105683182821,-8.301711367345947
-14.373741012389097,13.86462831541122,9.853339419037003,97.75475057831252,1.326955564037263,-20.542797954141847,3.909077642453431,-9.577374912636717,-1.1693709047041843,-2.2248488320506024,-9.85543175871006
-11.0759585167002,14.846500072139497,4.474683781472137,101.97518915312845,1.8609591832834902,-21.58129751885693,8.490577481658075,-1.5302784363529476,-0.6139466068953716,-1.6446573608217605,-13.047741602822068
-10.234097382574005,16.15441304427677,2.267489428140887,107.23913701526698,1.6874424031478747,-19.938278446617716,10.422747415609532,8.921804960745984,-1.3842160299531177,0.39805611525333684,-16.17510986099225
-12.296232744465879,18.5204027829636,4.737177951250078,111.4002255799031,2.0022567770535784,-16.18250837801997,9.513969370214156,14.688693345327625,-2.6500032864073084,2.2513460168910306,-17.92172546336272
-15.610368443035137,21.882074387239093,9.41816953696729,112.54720966785358,2.9405866855400786,-12.207679660052058,7.678843553323819,10.644907131190354,-2.2899510296894974,2.734869229866075,-17.896752485735654
-17.48765356053934,25.519268381496556,11.524895331124135,110.64871709424862,3.3786235735023133,-10.19127386397362,6.987484230478,-1.8245213373170834,0.8729143309208283,2.131952726662261,-16.437701424140652
-16.45354267098482,28.65807375438775,7.470486273520426,107.77896032715275,2.3376203282978403,-11.298139222427643,7.664708102687008,-14.923675891068303,5.262776877229657,1.7705795602384158,-14.29665980486466
-13.785654417867764,30.900384244085707,-2.1669558402756035,106.50218415847777,0.3161307044896622,-14.785868743874738,7.939689538706183,-19.969991430406143,7.372856902997345,2.656219373713932,-12.520866542365418
-12.56899935452629,32.156452839010164,-12.462247707699364,107.74079690554083,-1.1044832987894464,-18.322192616117178,5.901661957313259,-14.096477672459864,4.829722909866096,4.433364194796894,-12.251904653479912
-14.86103680831609,32.33667724531071,-17.170443441978712,110.06975401489856,-0.97870006165562,-19.469695909425354,1.6021905763910649,-2.575231606280802,-1.2026565107852196,5.630181962779831,-14.037906583016131
-19.481757025304084,31.335437447469197,-12.930153967128245,111.14679865273524,-0.10785579440902726,-17.382255891502837,-2.6477500351557826,5.486472673615978,-6.739920469135718,4.930085655577573,-17.14433572999105
-22.688530222769373,29.4589640375727,-1.732374963614184,109.92424541043383,-0.18752747300897799,-13.465148916013034,-4.11445194955626,4.543355322152795,-8.255809383695297,2.37775973518972,-19.763093856424717
-21.39217295190122,27.763968173614515,10.321255090307783,107.63031949995215,-1.875848272291651,-10.404537497465295,-1.9766181866505246,-3.125683229537323,-5.456987774126006,-0.5904384014631074,-20.256571677824347
-16.05555456678676,27.61054741501043,17.18996357329289,106.62618571010658,-3.8731463879304284,-10.224881114675656,2.0166905225993297,-9.797645691378037,-1.1328936869573383,-2.2608643855276154,-18.486647806224376
-10.460906551676699,29.58471248235899,16.842851778738346,108.19599109195947,-4.090649800065815,-12.919164045127003,5.128088291424411,-9.228616639845137,1.516312072278339,-1.9532230668202213,-15.909478445490757
-8.419961471398022,32.67576358380153,12.046690160089817,111.33030606516539,-1.80463272650264,-16.636640276989926,5.880963912884303,-1.9871747636424502,1.4156145475697617,-0.4112964012159681,-14.249308642955365
-10.461581029706641,34.67348916421272,7.581233851042709,113.59591692848713,1.4766276852592037,-19.179959099661364,4.87583292631789,5.429959767725226,-0.17576253630371852,0.9817048571600577,-13.969663473125976
-13.470556598534415,33.74925125330745,6.211937332182677,113.25402950846228,3.3372154757409374,-19.532812013216997,3.6258580614884046,6.546839952099141,-1.4457216410241749,1.4159160083269877,-14.085113178139354
-13.65033822544785,29.99082676982237,6.86571046896162,110.81223763320494,2.657559385713436,-18.16953524418164,2.8244354531456457,0.5318625703372657,-1.668126840524911,1.2359319406048317,-13.529395194108677
-10.029724905809918,25.555571515253867,6.342315680063189,108.60876121297841,0.5171312440730957,-16.20552794670931,1.8464710336501406,-7.285468254316722,-1.2453544081510586,1.3776382068675066,-12.46192809746328
-5.364594521788833,23.13021552659133,2.721001137669864,108.89927720515304,-0.9400378726885492,-14.272075318960693,-0.08158387838082959,-10.195675020768018,-0.7263479597396572,2.334217064194906,-12.09919774092633
-3.753044244715912,23.950274370565346,-2.7556421157829365,112.04597457405234,-0.5042113019815033,-12.213268047854719,-2.446486418003466,-5.7223972251945625,-0.1726975923726819,3.657158698088048,-13.295347307614996
-7.1465625028349375,27.025611262544743,-6.893120328218631,116.3139325768174,1.1781593095126097,-9.78386477578433,-3.5572352532525553,2.6622590167579077,0.511911613016613,4.431741848124382,-15.346676548237518
-13.804887992683845,30.186947917512704,-7.4958754787953445,119.32332174579304,2.4481457361915107,-7.522207669454861,-2.210105224813673,8.61436592582357,1.0559549017904342,4.167412816973778,-16.467279976618762
-19.748075978463376,31.927485325897283,-5.213946361883738,119.79909870332423,2.213617301202237,-6.762187708676725,0.8085598818839799,7.8539132900067905,1.0367037995252204,3.2641841935196334,-15.532462742638579
-21.676195659287334,32.365997118031146,-2.6767131063629463,118.16111681147903,0.7242751352077852,-8.634763570344083,3.039080478403841,0.9854129915703318,0.5644972886246276,2.530346904299564,-13.152034492682075
-19.008858271914836,32.74949083574323,-1.9034900279714506,115.66549083016652,-0.9690441926403648,-12.732463846252461,2.350771954771739,-7.459078498120407,0.4389537733802502,2.288553575311229,-10.922189861443385
-13.780583224457386,34.12904755634078,-2.7990919234070937,113.06809762276556,-2.0359612105373612,-16.816011261547956,-1.1821301033119056,-12.456947884432688,1.2745494779758921,2.0424949013210196,-9.77879055688542
-8.962486983305146,36.58137888459113,-4.001153194975109,110.15225720718392,-2.298371098155714,-18.044015885631914,-5.361577455841822,-11.633603681555407,2.529349827950595,1.0460531410377423,-9.260657141414093
-6.667918681527361,39.4867046327075,-4.926688725640602,106.45923137971558,-1.9574378366399103,-14.883196767619074,-7.804195026289179,-6.287418896332598,2.7033973601859707,-0.8329173587103251,-8.504921429325531
-7.201801731297051,42.29673949730479,-6.6185699756381915,102.36240298421004,-1.148077458317816,-8.340991490530973,-7.812937074488024,-0.3027251651098979,0.7651134530149957,-2.8050563760703304,-7.568210999662303
-9.193437574378528,44.736527727904495,-10.402535472312977,99.168659483666,0.1102418604099662,-1.475231154942513,-6.530190264920881,2.2198311713666374,-2.566214249726361,-3.8442954932263786,-7.403358293323757
-10.487750694625007,46.40943305191206,-15.619220605941134,98.0636446754626,1.660378247247914,2.5076615699970004,-5.437109180766438,-0.6148192039901339,-5.168131886246112,-3.6328518315062257,-8.257117496876738
-9.356094590663638,46.65091739271456,-19.119272303377205,98.85483464495614,3.1245807766789335,2.1399826181360924,-4.873804528678304,-7.2380270587402755,-5.334257553475034,-2.78291729462594,-8.448426523526956
-5.554007289399463,45.15842560073652,-17.487800241930533,99.92653787098331,4.185802197999473,-1.7120106380509101,-4.093604161754143,-13.278004341389192,-3.3138841529960548,-2.1431446290935794,-5.51036879150823
-0.4951811752358415,42.849897704903654,-10.3888713093929,99.69681594840355,4.821610367309291,-6.656621064596724,-2.535067740934976,-14.1666284580681,-1.0004343421635031,-1.913126250018336,0.9714898456519645
3.738256694479954,41.73240387647161,-1.7732634763115303,98.19128966827438,5.16951334405104,-10.164705243866,-0.7678628173326416,-8.336815036993771,-0.13796783262520051,-1.5174999116676762,7.772089634039705
5.854338382507149,43.406958138502645,2.636139136195969,97.11342538047741,5.190334318039383,-10.535422663196885,-0.052516945366508416,1.265082801930598,-0.7908117217467403,-0.41731925403195147,9.957544774053586
6.113657342172911,47.38885465422308,-0.11996031531844764,98.16045908900311,4.567935596437876,-7.137156638829167,-0.951237900162659,8.913911246095278,-1.4599791577712216,0.9932363311823134,5.200685354886014
5.719357377519251,51.10554621933893,-7.541093479519992,101.13464003296363,3.0409016326724148,-0.5244529598169163,-2.551076840647034,10.135069272407613,-0.649213193419437,1.4804144432743476,-3.4559994371912715
5.462702710299474,51.97869782194887,-13.314253342054819,103.84281502589448,0.8623592732495552,7.375879494163036,-3.1109560713367683,5.052967464973133,1.7497278061625803,0.12476148468468817,-9.43047468752378
5.153174663889809,49.78417852666866,-12.17092338411149,104.0122231472871,-1.1583013490506624,13.48092098384735,-1.6344504966402056,-1.7506870261289285,4.4206928105996806,-2.5283322653133986,-7.88624761578566
4.384591170467024,47.05673329894644,-4.078230465525385,101.4810249726653,-2.1646917841751496,14.783482938000402,1.2870626559015745,-4.959662917977905,5.782182125166183,-4.495141127958168,0.08510052389283995
3.663912339715901,46.95648415706718,5.712646013231984,98.43422917471077,-1.8636994680834436,10.345925134615175,4.023410530003857,-2.6277178973537696,5.2373168186084005,-3.8093000739983256,8.313422901366778
4.386457637454095,50.48097623402447,10.756895584604617,97.33430444001111,-0.6774582940489902,2.6102039682795146,5.346543452688323,2.710961756041246,3.50994269683679,-0.21910405095193253,10.802554242974427
7.347493848508064,55.62602294233544,8.216218240342265,98.50633097118134,0.6412663742125922,-3.5132684955297746,5.290781879863081,6.708623903390386,2.0204943439448613,4.304087901079983,6.7742761045738895
11.391288840292525,59.24999943194761,0.5954558010830993,99.78642857534878,1.5584964765627436,-3.7219164289024507,4.748729950680772,7.151711639972839,1.9668332988894561,6.838017545317409,1.0792513793158698
13.992048671677214,59.76525165598907,-6.722481819239454,98.64180450016538,1.9677697888493346,2.5067198488183395,4.42375406167821,5.403929302233026,3.5754897066716125,5.66562967175106,-0.2604017641296963
13.593319737449436,58.07499292006507,-9.661534447764666,94.70093788719123,2.0089435960040403,11.3252392095552,4.20673453704319,4.24149306110912,5.9159418906411645,1.608905330561699,4.7912031339083585
11.438405843732024,56.14660158414203,-7.941493508434418,90.19112599555487,1.7967166977803466,17.218046199600266,3.5645429766891006,4.5822748722795765,7.342803330012796,-2.5433709295503397,12.85396240166009
10.645883341891878,55.005186208588015,-4.35187044122937,87.79128247966653,1.3768086911467563,17.007230145801202,2.457562169757046,4.459542642973593,6.505710706307973,-4.0774627779044925,18.371626392773695
13.11176165417642,54.25623639652659,-2.0349761310631527,87.98231794291858,0.8204241452884502,12.020728747108514,1.7357028829797991,1.2841195941171466,3.407837394591479,-2.251172956808739,18.34420314838151
17.21184830000506,53.32757264351095,-2.161824196488184,88.43461408354094,0.26689753435998376,6.755857163790003,2.519445745221787,-4.922029289638901,-0.27888498058850786,1.3596794712647808,14.39724727045312
18.991855395374806,52.691384899706996,-3.7508191527941364,86.15110161581035,-0.1696161932800524,5.258207823204154,5.088635073516896,-10.704491169381908,-2.2461389603533823,4.213129271323065,10.835746915741302
15.983250579743466,53.40591822164469,-5.105843275576471,80.35617467445431,-0.5118414263185186,8.159564628903707,8.21955239258549,-11.916077250881443,-1.364237266509652,4.726624689589054,10.836331487246229
10.003899645153895,55.45617990319731,-5.320711403057323,73.43150306650173,-0.8989249927584477,12.674714037663646,9.730282255842807,-7.45592159845444,1.2959993785193367,3.19746660312478,14.137041709045857
5.981257730962724,56.943769873639646,-4.745669346445723,69.05363138204095,-1.4297193185203443,15.242259707153998,7.991386639630132,-0.33912970335975245,3.2376861659032126,1.1564704883859902,17.848798942074396
7.500253450956029,55.47580282767909,-4.365418264694132,69.20871787226392,-2.044059699153296,14.45091562593121,3.2798829737635913,4.732383938303094,2.7074207003858923,-0.0854095061512039,19.093853030187216
13.255045057359785,50.665694204645234,-4.8164204889991415,72.65328686027698,-2.52532201482975,11.882557368841775,-2.1119412949065164,5.153496417113431,0.2899932625444612,-0.3379322222356257,17.08589456303569
17.991084665744353,45.18706753461213,-5.882613643930295,75.95874183866776,-2.6117424915987857,10.512052465564821,-5.283758440819383,2.0012323451904357,-1.6127025871732616,-0.2601921388673185,13.158087641391907
17.174644867663915,42.93612339658911,-6.681733351976696,76.1259251343719,-2.1443376630030935,12.212172428930035,-4.736450529461505,-1.5488305888238432,-1.0377460241400729,-0.42084501176428635,9.368285160819436
11.169935627601255,45.69217018049267,-6.274891153615284,72.5041854293651,-1.1721738936479,16.27548228966616,-1.4896567101322589,-3.0422929540376193,1.645912633969997,-0.7531137524878302,7.17067543292535
5.006675557536618,51.369303584475546,-4.421748609548877,66.73910617661487,-0.014589225820359264,20.0231753726111,1.6112485147037845,-1.9812435953615235,4.024540587297434,-0.9461183618295614,7.099212682970823
3.9432162752099096,55.50719769407698,-1.8181309291477605,61.23871969536411,0.8064198982483677,20.87914891873118,1.9492189065436394,1.014198291214572,3.84007186448562,-1.111386632494801,9.183589510060711
9.040029032362616,54.814011671982186,0.4338535831528154,57.62582571575281,0.8343189201313419,18.295031169518328,-0.9972765890714275,5.288568357877188,1.0434357731020858,-1.81669410020815,13.266114894689476
16.538341884488204,49.63756359335781,1.7371704291596135,56.230384751873366,0.020515923467411046,14.104082276032933,-5.457310066254866,9.94634514732774,-2.2419152137404907,-3.3106955296351743,18.68453076233509
21.375536874806134,43.3826543688217,2.547337523978391,56.468725615634284,-1.1107363721380954,11.208459514504682,-8.898964313131218,12.94564831533176,-3.7409427088010765,-4.829344084574094,23.88404475065981
21.358802816870146,39.567643934882476,3.9646355262765303,57.37124640894142,-1.7573510661777498,11.583766119990203,-9.91783927381074,11.57827529742983,-2.9933758569347164,-4.947616547143757,26.735013742531397
18.332987170663966,39.12813663940824,6.660641146865782,57.796786069587185,-1.4661695771406125,14.934376432064816,-8.914873010178756,4.956011626777016,-1.5397191351884418,-2.891366874342742,25.745748715657253
15.713880484590481,40.074655386505476,10.006676220030315,56.5510443228339,-0.5738939122168372,18.913358089236464,-7.1770994708727995,-3.7868509121273286,-1.2277215901168161,0.450281997388899,21.309098956476028
15.11808908860897,39.47529956223527,12.353985982771913,52.86657857373861,0.0024531259867071054,20.773996048018223,-5.490927666433651,-8.703120915242852,-2.393943114660537,3.0324418351301734,15.811390682412668
15.349665351937869,35.96935836026127,12.290632692001916,47.05339781468392,-0.45112227528642146,19.195614327782923,-3.689968721445724,-5.616872561429068,-3.6099014133325307,3.366621050914217,12.193946920616598
14.303201439318102,30.858201788107618,9.71596939459085,40.68507767870235,-1.7870658582996435,15.066878119129797,-1.4097868056535043,3.688907990258799,-3.2000920744919608,1.8873726780846471,11.856008478340632
11.603383379698924,27.10096729863391,5.775689994776705,35.83652840517237,-3.0600318782345703,10.790724832207749,1.0174149166220654,12.140439340964111,-0.9962652189544943,0.5778652616410112,13.587223788498621
9.253104545688203,27.1394738300856,1.8212191137739162,33.72408699703698,-3.3118543425121008,8.775817209548757,2.5950768406426543,13.084835166822058,1.3124951645553038,1.0574497343001037,14.62615859804047
9.739724144314541,31.089037114461757,-1.586744002914469,33.817178113603376,-2.3473451559710377,10.04380804679676,2.5793047291427396,6.137909257227583,1.554537049547428,3.0288375957539926,13.169924804891245
13.482985512422538,36.570482784484234,-4.62509222786167,34.21898920271722,-0.8019540039851661,13.77803770989912,1.2458113298929319,-2.531287765931261,-0.9419851617152333,4.595249760537238,10.172799842766793
18.07515063537416,40.18462028819585,-7.310847269981086,33.111609162925134,0.45637436160856776,17.93770749132645,-0.3906481520992289,-5.9271212609530615,-4.504042956313079,4.177294899842216,8.767302092081309
20.11034379784399,39.732426736934514,-8.885930216407948,30.11550445825857,1.0254675392493071,20.33307207161878,-1.6562247917303163,-2.540980352268523,-6.156393955741343,2.1147984639315576,11.53146739466487
18.02322602682341,35.74439881627561,-8.370015682521515,26.39720536337434,1.1164710128594022,19.723947837882257,-2.8593832966011714,2.7129358039137292,-3.916637711841255,0.3067258086458149,17.830097340204887
13.392676220953089,31.089095825688382,-5.686594751955597,23.52884580790436,1.146459034275852,16.52193697358872,-4.648060710886664,3.6927227124034427,1.4729733658786122,0.263177824001722,23.69173703143374
9.629540460423655,28.864396554012995,-2.2086285371417644,22.154018761431473,1.335470126348779,12.698869337387672,-6.823808028207591,-1.0320362296001702,6.755573610625466,1.6107504641914199,24.62348283982935
9.181789211256316,30.003371265828708,0.07053597073476314,21.624034662906354,1.6771121226914292,10.786781984326474,-8.03602612588865,-7.359759788307519,8.337656724819503,2.569713054854236,19.33757758001715
11.676181294438184,32.614373211246814,0.17461262754373796,20.751525800168928,2.1532482131066324,12.333907856556042,-6.778938302546123,-10.291809987432247,4.972294337287266,1.9304270296529293,11.134395125908686
14.509290988434849,33.73022156318485,-0.915684814294882,18.802219720985214,2.8260052862768674,16.752396316438208,-2.934685743187155,-8.989183387362733,-1.2253644366234484,0.4552712552766917,5.5355066864504465
15.29020055328537,32.024250437516045,-1.103151300645584,15.827657945327744,3.5990587397511344,21.470930757752644,1.835685210891612,-6.885442067503847,-6.328734130142136,0.190636454356917,5.945331122235615
13.860378640094495,29.101992096431193,0.9000380059387227,12.2156694614197,3.992044828296849,23.576636590393623,5.38831656666996,-7.114797007201686,-7.525457435714502,2.3117456267880656,10.842269300162622
12.241512967893222,28.079665147876486,4.276354217352711,8.208056888348075,3.4054673916833758,21.89749512116433,6.843847955950833,-8.581421883697988,-5.0452965372984435,5.65722237724037,14.951988733695217
12.626762278539903,30.638283603395276,6.768717304958974,3.982141012728448,1.750138888289225,17.85102556359584,7.142108603726218,-7.123292963203033,-1.5549271942535432,7.502274813020538,13.565868759431389
15.371128577380661,35.24351157172113,6.772536496495971,0.020907872945066686,-0.15869111387302448,14.32595122024843,7.900064375647306,-0.5841379210978737,0.38078086957834034,5.963295657076144,6.455163496628035
18.691825012538935,38.25936634367367,4.945616748902252,-2.9419195230601503,-1.0158255340678686,13.317824097905657,9.644738049853945,7.8225878481654085,0.38379585283113293,1.8060423703375843,-1.8942824374810652
20.278895103052974,37.10636600809569,3.703110079312993,-4.607689391462742,-0.01913761520043611,14.25352765321442,11.125444621434971,11.888653779996732,0.060962088839915274,-2.042662651103646,-5.928254781430926
19.17226215296638,32.49641219539794,4.960671184159063,-5.695112547903776,2.3874310586870475,14.528851436287393,10.43106999747285,8.259396685727463,0.8668747117944973,-2.824433655806085,-3.518339698682951
16.241413834996663,27.686583751748515,8.212447079435936,-7.524234226095096,4.759564497203085,11.786756329382694,6.736687227495923,-0.13405439690311738,2.37174195071617,-0.05904209884688083,2.454300222091833
13.037626245124407,25.448309643518975,10.820673318047906,-10.788208285675637,5.707219008069659,6.088531577799701,1.1817130396715874,-6.59378738283171,2.6848785626785254,4.262284113812606,6.74883454547548
10.317592238323442,25.647422136677193,10.368304163651185,-14.668350580632563,4.874757920724607,0.05756129943240129,-3.7430682439135956,-6.7151219912664315,0.5454795586273558,7.385249885443175,6.28920059233538
7.684516263072835,25.68840008267459,6.935720560393797,-17.505958501895236,3.044871292899816,-3.1690479968948013,-5.741326500213064,-2.0269991282233835,-3.0996093449546134,7.7207464897740525,2.583027410560308
4.46164291785475,23.304294080504622,3.094923758195825,-18.635708402338587,1.3712781519877608,-2.5030053284405436,-4.029121752294088,2.0856343498020475,-5.797188417371355,5.566837697998774,-0.009501025932461715
0.7258899424349972,18.937757334844434,1.5341271231716416,-19.45828706134479,0.48725522775487295,0.2237086600727749,0.29065183448212917,1.7904520663981796,-5.866661440854481,2.3514550837464254,1.5329868035343432
-2.6231575225037242,15.28739646642574,2.4547568716497725,-22.39642568834121,0.25743138243789315,1.87221310927651,4.778850492615623,-1.9394690972346629,-3.9443422235901298,-0.5804070041837719,5.989188736658517
